File: ACS_Catal_2026/Figures_Na_K/main_figures/data/EC/20240126_2-102_Add_Na/20240125_2-102_003_K_elctrode1_C01.mpt
EC-Lab ASCII FILE
Nb header lines : 66

Cyclic Voltammetry Advanced

Run on channel : 1 (SN 66412)
User :
CE vs. WE compliance from -10 V to 10 V
Electrode connection : standard
Potential control : Ewe
Ewe ctrl range : min = -1.00 V, max = 1.00 V
Safety Limits :
	Do not start on E overload
Acquisition started on : 01/26/2024 15:49:54.608
Loaded Setting File :  C:\Users\NakamuraT\Documents\EC-Lab\Data\Yatsuzuka\20240125_2-101_K_new_condition\20240125_2-101_004_reused_solution_30min_wait_elctrode1_C01.mpr
Saved on :
	File : 20240125_2-102_003_K_elctrode1_C01.mpr
	Directory : C:\Users\NakamuraT\Documents\EC-Lab\Data\Yatsuzuka\20240126_2-102_Add_Na\
	Host : 192.109.209.100
Device : SP-150e (SN .003411)
Address : 192.109.209.236
EC-Lab for windows v11.50 (software)
Internet server v11.50 (firmware)
Command interpretor v11.50 (firmware)
Electrode material :
Initial state :
Electrolyte :
Comments :
Electrode surface area : 0.001 cm2
Characteristic mass : 0.001 g
Equivalent Weight : 0.000 g/eq.
Density : 0.000 g/cm3
Volume (V) : 0.001 cm3
Cycle Definition : Charge/Discharge alternance
Ei (V)              0.450
vs.                 Ref
ti (h:m:s)          0:00:10.0000
dti (s)             0.0000
dE/dt               5.000
dE/dt unit          mV/s
E1 (V)              0.700
vs.                 Ref
t1 (h:m:s)          0:00:0.0000
dt1 (s)             0.1000
Step percent        50
N                   10
E range min (V)     -1.000
E range max (V)     1.000
I Range             10 mA
I Range min         Unset
I Range max         Unset
I Range init        Unset
Bandwidth           5
E2 (V)              0.450
vs.                 Ref
t2 (h:m:s)          0:00:0.0000
dt2 (s)             0.1000
nc cycles           14
nr                  1
Reverse Scan        0
Ef (V)              0.000
vs.                 Eoc
tf (h:m:s)          0:00:0.0000
dtf (s)             0.1000

mode	ox/red	error	control changes	Ns changes	counter inc.	time/s	control/V	Ewe/V	<I>/mA	cycle number	(Q-Qo)/C	I Range	Ns	step time/s	P/W
2	1	0	1	0	0	0.000000000000000E+000	0.44994	0.45018	0.0194731	1	0.0000000E+000	11	0	0.000000000000000E+000	8.76642e-06
2	1	0	1	0	0	12.3571	0.511726	0.512033	0.189232	1	0.001823	11	0	12.3021	9.68928e-05
2	1	0	1	0	0	24.7593	0.573737	0.574018	0.622357	1	0.00597625	11	0	24.7043	0.000357244
2	1	0	0	0	0	37.1616	0.635748	0.636009	2.7108	1	0.0244353	11	0	37.1066	0.00172409
2	1	0	1	0	0	49.5638	0.697759	0.698049	6.32158	1	0.079501	11	0	49.5088	0.00441277
2	1	0	1	0	0	61.7739	0.641149	0.641465	2.70399	1	0.134908	11	0	61.7189	0.00173451
2	1	0	1	0	0	74.1761	0.579138	0.579487	0.420348	1	0.152048	11	0	74.1211	0.000243586
2	0	0	0	0	0	86.5784	0.517127	0.517407	-0.0639788	1	0.15318	11	0	4.3008	-3.31031e-05
2	0	0	1	0	0	98.9806	0.455116	0.455426	-0.112611	1	0.152004	11	0	16.703	-5.12859e-05
2	1	0	1	0	1	111.256	0.506275	0.506541	0.11668	2	0.153048	11	0	11.0019	5.91035e-05
2	1	0	1	0	1	123.658	0.568286	0.568584	0.381964	2	0.155463	11	0	23.4041	0.000217178
2	1	0	1	0	1	136.06	0.630297	0.630603	2.20461	2	0.169179	11	0	35.8064	0.00139024
2	1	0	0	0	1	148.463	0.692308	0.692602	5.75553	2	0.217423	11	0	48.2086	0.00398629
2	1	0	1	0	1	160.663	0.64665	0.646956	2.86977	2	0.274374	11	0	60.4087	0.00185662
2	1	0	1	0	1	173.065	0.584639	0.584953	0.479137	2	0.292939	11	0	72.8109	0.000280272
2	0	0	1	0	1	185.467	0.522628	0.522838	-0.0592882	2	0.294371	11	0	3.7008	-3.09981e-05
2	0	0	0	0	1	197.869	0.460617	0.460948	-0.112536	2	0.293234	11	0	16.103	-5.18733e-05
2	1	0	0	0	0	210.145	0.500774	0.501066	0.108699	3	0.293988	11	0	9.9018	5.44652e-05
2	1	0	1	0	0	222.547	0.562785	0.563118	0.296795	3	0.296008	11	0	22.304	0.00016713
2	1	0	0	0	0	234.949	0.624796	0.625077	1.86879	3	0.307139	11	0	34.7062	0.00116814
2	1	0	1	0	0	247.351	0.686807	0.687159	5.30183	3	0.350358	11	0	47.1084	0.0036432
2	1	0	0	0	0	259.552	0.652151	0.652481	3.09272	3	0.409065	11	0	59.3086	0.00201794
2	1	0	1	0	0	271.954	0.59014	0.590439	0.568038	3	0.429664	11	0	71.7108	0.000335392
2	0	0	0	0	0	284.356	0.528129	0.528432	-0.0498175	3	0.43157	11	0	2.8006	-2.63252e-05
2	0	0	1	0	0	296.758	0.466118	0.466386	-0.109424	3	0.430487	11	0	15.2028	-5.10339e-05
2	1	0	1	0	1	309.034	0.495273	0.495602	0.105992	4	0.430987	11	0	8.8016	5.25297e-05
2	1	0	0	0	1	321.436	0.557284	0.557612	0.242442	4	0.43276	11	0	21.2038	0.000135189
2	1	0	1	0	1	333.838	0.619295	0.619534	1.58398	4	0.441877	11	0	33.606	0.000981326
2	1	0	0	0	1	346.24	0.681306	0.681595	4.86935	4	0.480446	11	0	46.0082	0.00331892
2	1	0	1	0	1	358.44	0.657652	0.657945	3.33581	4	0.54018	11	0	58.2084	0.00219478
2	1	0	0	0	1	370.843	0.595641	0.595951	0.674616	4	0.563036	11	0	70.6106	0.000402038
2	0	0	1	0	1	383.245	0.53363	0.53388	-0.0379713	4	0.565522	11	0	2.0004	-2.02721e-05
2	0	0	0	0	1	395.647	0.471619	0.47196	-0.104994	4	0.564506	11	0	14.4026	-4.95531e-05
2	1	0	0	0	0	407.922	0.489772	0.490077	0.103832	5	0.564766	11	0	7.7014	5.08858e-05
2	1	0	1	0	0	420.325	0.551783	0.552075	0.201076	5	0.566371	11	0	20.1036	0.000111009
2	1	0	0	0	0	432.727	0.613794	0.614116	1.33572	5	0.573866	11	0	32.5058	0.000820287
2	1	0	1	0	0	445.129	0.675805	0.676187	4.47226	5	0.608307	11	0	44.908	0.00302408
2	1	0	0	0	0	457.329	0.663153	0.663438	3.59197	5	0.668587	11	0	57.1082	0.00238305
2	1	0	1	0	0	469.731	0.601142	0.601443	0.798473	5	0.693884	11	0	69.5104	0.000480236
2	0	0	0	0	0	482.134	0.539131	0.539486	-0.0222372	5	0.697069	11	0	1.0002	-1.19967e-05
2	0	0	1	0	0	494.536	0.47712	0.477446	-0.103036	5	0.696128	11	0	13.4024	-4.91943e-05
2	1	0	1	0	1	506.811	0.484271	0.484516	0.0999262	6	0.696157	11	0	6.6012	4.84159e-05
2	1	0	0	0	1	519.213	0.546282	0.546598	0.173356	6	0.697641	11	0	19.0034	9.47559e-05
2	1	0	1	0	1	531.616	0.608293	0.608603	1.12266	6	0.703808	11	0	31.4056	0.000683256
2	1	0	0	0	1	544.018	0.670304	0.670575	4.08864	6	0.734367	11	0	43.8078	0.00274174
2	1	0	1	0	1	556.218	0.668654	0.668975	3.85451	6	0.794485	11	0	56.008	0.00257857
2	1	0	0	0	1	568.62	0.606643	0.606971	0.930346	6	0.822297	11	0	68.4102	0.000564693
2	0	0	1	0	1	581.022	0.544632	0.54499	-0.00493293	6	0.826296	11	0	0.1	-2.6884e-06
2	0	0	0	0	1	593.425	0.482621	0.482954	-0.100366	6	0.825448	11	0	12.5022	-4.8472e-05
2	1	0	0	0	0	605.7	0.47877	0.47906	0.0981407	7	0.825256	11	0	5.501	4.70153e-05
2	1	0	1	0	0	618.102	0.540781	0.541158	0.150248	7	0.826657	11	0	17.9032	8.1308e-05
2	1	0	0	0	0	630.504	0.602792	0.60307	0.934189	7	0.831749	11	0	30.3054	0.000563381
2	1	0	1	0	0	642.907	0.664803	0.665108	3.72867	7	0.858771	11	0	42.7076	0.00247997
2	1	0	0	0	0	655.107	0.674155	0.674435	4.17302	7	0.918407	11	0	54.9078	0.00281443
2	1	0	1	0	0	667.509	0.612144	0.61252	1.09524	7	0.949261	11	0	67.31	0.000670859
2	1	0	0	0	0	679.911	0.550133	0.550479	0.0203552	7	0.954253	11	0	79.7122	1.12051e-05
2	0	0	1	0	0	692.313	0.488122	0.48846	-0.0948584	7	0.953512	11	0	11.5021	-4.63345e-05
2	1	0	1	0	1	704.589	0.473269	0.473502	0.0987639	8	0.953103	11	0	4.4008	4.67649e-05
2	1	0	0	0	1	716.991	0.53528	0.535614	0.136376	8	0.954441	11	0	16.803	7.30448e-05
2	1	0	1	0	1	729.393	0.597291	0.597585	0.774108	8	0.958657	11	0	29.2052	0.000462596
2	1	0	0	0	1	741.795	0.659302	0.659617	3.38508	8	0.982381	11	0	41.6074	0.00223286
2	1	0	1	0	1	753.996	0.679656	0.679991	4.5044	8	1.04087	11	0	53.8076	0.00306295
2	1	0	0	0	1	766.398	0.617645	0.617958	1.28396	8	1.07507	11	0	66.2098	0.000793432
2	1	0	1	0	1	778.8	0.555634	0.555927	0.0470244	8	1.08126	11	0	78.612	2.61421e-05
2	0	0	0	0	1	791.202	0.493623	0.493858	-0.0938585	8	1.08065	11	0	10.4019	-4.63528e-05
2	1	0	0	0	0	803.478	0.467768	0.468097	0.0958316	9	1.08003	11	0	3.3006	4.48585e-05
2	1	0	1	0	0	815.88	0.529779	0.530062	0.123957	9	1.08132	11	0	15.7028	6.5705e-05
2	1	0	0	0	0	828.282	0.59179	0.592117	0.637773	9	1.08485	11	0	28.105	0.000377636
2	1	0	1	0	0	840.684	0.653802	0.654171	3.05141	9	1.10554	11	0	40.5072	0.00199614
2	1	0	0	0	0	852.884	0.685157	0.685512	4.80267	9	1.16191	11	0	52.7074	0.00329229
2	1	0	1	0	0	865.287	0.623146	0.623475	1.45219	9	1.199	11	0	65.1096	0.000905404
2	1	0	0	0	0	877.689	0.561135	0.561523	0.081527	9	1.20639	11	0	77.5118	4.57793e-05
2	0	0	1	0	0	890.091	0.499124	0.499418	-0.0905746	9	1.20594	11	0	9.4018	-4.52346e-05
2	1	0	1	0	1	902.366	0.462268	0.462592	0.0947949	10	1.20512	11	0	2.2004	4.38514e-05
2	1	0	0	0	1	914.769	0.524278	0.524557	0.115985	10	1.20637	11	0	14.6026	6.08406e-05
2	1	0	1	0	1	927.171	0.586289	0.586572	0.522386	10	1.20934	11	0	27.0048	0.000306417
2	1	0	0	0	1	939.573	0.648301	0.648627	2.73508	10	1.22726	11	0	39.407	0.00177405
2	1	0	1	0	1	951.773	0.690658	0.690941	5.15497	10	1.28108	11	0	51.6072	0.00356178
2	1	0	0	0	1	964.175	0.628647	0.628882	1.67955	10	1.32186	11	0	64.0094	0.00105624
2	1	0	1	0	1	976.578	0.566636	0.566945	0.127807	10	1.33083	11	0	76.4116	7.24595e-05
2	0	0	0	0	1	988.98	0.504625	0.504976	-0.0850866	10	1.33059	11	0	8.4016	-4.29667e-05
2	1	0	0	0	0	1001.26	0.456766	0.457121	0.0887112	11	1.32957	11	0	1.1002	4.05518e-05
2	1	0	1	0	0	1013.66	0.518777	0.519113	0.108446	11	1.3308	11	0	13.5024	5.62959e-05
2	1	0	0	0	0	1026.06	0.580789	0.581135	0.428378	11	1.33333	11	0	25.9046	0.000248945
2	1	0	1	0	0	1038.46	0.642799	0.64312	2.43611	11	1.34878	11	0	38.3068	0.00156671
2	1	0	0	0	0	1050.66	0.696159	0.69643	5.4903	11	1.39923	11	0	50.507	0.00382361
2	1	0	1	0	0	1063.06	0.634148	0.634436	1.89859	11	1.44359	11	0	62.9092	0.00120453
2	1	0	0	0	0	1075.47	0.572137	0.572471	0.177789	11	1.4542	11	0	75.3114	0.000101779
2	0	0	1	0	0	1087.87	0.510126	0.510431	-0.0805729	11	1.45419	11	0	7.4014	-4.11269e-05
2	1	0	1	0	1	1100.14	0.451265	0.451611	0.0195539	12	1.453	11	0	0.000000000000000E+000	8.83077e-06
2	1	0	0	0	1	1112.55	0.513277	0.513618	0.105776	12	1.45419	11	0	12.4022	5.43282e-05
2	1	0	1	0	1	1124.95	0.575287	0.575587	0.354922	12	1.45639	11	0	24.8044	0.000204288
2	1	0	0	0	1	1137.35	0.637299	0.637588	2.15194	12	1.46958	11	0	37.2066	0.00137205
2	1	0	1	0	1	1149.75	0.69931	0.69964	5.71976	12	1.51729	11	0	49.6088	0.00400177
2	1	0	0	0	1	1161.95	0.639649	0.640021	2.14091	12	1.56432	11	0	61.809	0.00137023
2	1	0	1	0	1	1174.36	0.577638	0.578034	0.24258	12	1.57683	11	0	74.2112	0.000140219
2	0	0	0	0	1	1186.76	0.515627	0.515851	-0.0736771	12	1.57713	11	0	6.4012	-3.80064e-05
2	0	0	1	0	1	1199.16	0.453616	0.453904	-0.108762	12	1.57595	11	0	18.8034	-4.93677e-05
2	1	0	1	0	0	1211.43	0.507776	0.50806	0.103453	13	1.57693	11	0	11.302	5.25605e-05
2	1	0	0	0	0	1223.84	0.569787	0.570082	0.293251	13	1.57886	11	0	23.7042	0.000167177
2	1	0	1	0	0	1236.24	0.631798	0.632066	1.88575	13	1.59007	11	0	36.1064	0.00119192
2	1	0	0	0	0	1248.64	0.693809	0.694132	5.33049	13	1.63358	11	0	48.5086	0.00370007
2	1	0	1	0	0	1260.84	0.64515	0.645442	2.39033	13	1.68375	11	0	60.7088	0.00154282
2	1	0	0	0	0	1273.24	0.583139	0.583485	0.314285	13	1.69824	11	0	73.111	0.00018338
2	0	0	1	0	0	1285.65	0.521128	0.521404	-0.0683978	13	1.69888	11	0	5.301	-3.56629e-05
2	0	0	0	0	0	1298.05	0.459117	0.459362	-0.106564	13	1.69774	11	0	17.7032	-4.89516e-05
2	1	0	0	0	1	1310.32	0.502275	0.502523	0.100147	14	1.69849	11	0	10.2018	5.0326e-05
2	1	0	1	0	1	1322.73	0.564286	0.564641	0.246273	14	1.70023	11	0	22.604	0.000139056
2	1	0	0	0	1	1335.13	0.626297	0.626613	1.64008	14	1.70968	11	0	35.0062	0.0010277
2	1	0	1	0	1	1347.53	0.688308	0.688595	4.97127	14	1.74929	11	0	47.4084	0.00342319
2	1	0	0	0	1	1359.73	0.650651	0.650867	2.66529	14	1.8023	11	0	59.6086	0.00173475
2	1	0	1	0	1	1372.13	0.58864	0.588941	0.407398	14	1.81912	11	0	72.0108	0.000239934
2	0	0	0	0	1	1384.53	0.526629	0.526926	-0.0608214	14	1.82023	11	0	4.2008	-3.20484e-05
2	0	0	1	0	1	1396.94	0.464618	0.465012	-0.10571	14	1.81914	11	0	16.603	-4.91562e-05
2	1	0	1	0	0	1409.21	0.496774	0.497056	0.0965756	15	1.81966	11	0	9.1016	4.80035e-05
2	1	0	0	0	0	1421.61	0.558785	0.559161	0.206873	15	1.82125	11	0	21.5038	0.000115676
2	1	0	1	0	0	1434.02	0.620796	0.621094	1.41169	15	1.82919	11	0	33.906	0.00087679
2	1	0	0	0	0	1446.42	0.682807	0.683085	4.61799	15	1.86503	11	0	46.3082	0.00315448
2	1	0	1	0	0	1458.62	0.656152	0.656519	2.94378	15	1.9201	11	0	58.5084	0.00193265
2	1	0	0	0	0	1471.02	0.594141	0.594418	0.510587	15	1.93935	11	0	70.9106	0.000303502
2	0	0	1	0	0	1483.42	0.53213	0.532374	-0.0488195	15	1.94098	11	0	3.2006	-2.59902e-05
2	0	0	0	0	0	1495.83	0.470119	0.470465	-0.101848	15	1.93995	11	0	15.6028	-4.79157e-05
2	0	0	1	0	0	1499.84	0.44999	0.450429	-0.112268	15	1.93952	11	0	19.6216	-5.05688e-05