File: ACS_Catal_2026/Figures_Na_K/main_figures/data/EC/20240126_2-102_Add_Na/20240125_2-102_012_add_K_5mL_elctrode4_C02.mpt
EC-Lab ASCII FILE
Nb header lines : 66

Cyclic Voltammetry Advanced

Run on channel : 2 (SN 66414)
User :
CE vs. WE compliance from -10 V to 10 V
Electrode connection : standard
Potential control : Ewe
Ewe ctrl range : min = -1.00 V, max = 1.00 V
Safety Limits :
	Do not start on E overload
Acquisition started on : 01/26/2024 17:47:59.434
Loaded Setting File :  C:\Users\NakamuraT\Documents\EC-Lab\Data\Yatsuzuka\20240126_2-102_Add_Na\20240125_2-102_003_K_elctrode1.mps
Saved on :
	File : 20240125_2-102_012_add_K_5mL_elctrode4_C02.mpr
	Directory : C:\Users\NakamuraT\Documents\EC-Lab\Data\Yatsuzuka\20240126_2-102_Add_Na\
	Host : 192.109.209.100
Device : SP-150e (SN .003411)
Address : 192.109.209.236
EC-Lab for windows v11.50 (software)
Internet server v11.50 (firmware)
Command interpretor v11.50 (firmware)
Electrode material :
Initial state :
Electrolyte :
Comments :
Electrode surface area : 0.001 cm2
Characteristic mass : 0.001 g
Equivalent Weight : 0.000 g/eq.
Density : 0.000 g/cm3
Volume (V) : 0.001 cm3
Cycle Definition : Charge/Discharge alternance
Ei (V)              0.450
vs.                 Ref
ti (h:m:s)          0:00:10.0000
dti (s)             0.0000
dE/dt               5.000
dE/dt unit          mV/s
E1 (V)              0.700
vs.                 Ref
t1 (h:m:s)          0:00:0.0000
dt1 (s)             0.1000
Step percent        50
N                   10
E range min (V)     -1.000
E range max (V)     1.000
I Range             10 mA
I Range min         Unset
I Range max         Unset
I Range init        Unset
Bandwidth           5
E2 (V)              0.450
vs.                 Ref
t2 (h:m:s)          0:00:0.0000
dt2 (s)             0.1000
nc cycles           14
nr                  1
Reverse Scan        0
Ef (V)              0.000
vs.                 Eoc
tf (h:m:s)          0:00:0.0000
dtf (s)             0.1000

mode	ox/red	error	control changes	Ns changes	counter inc.	time/s	control/V	Ewe/V	<I>/mA	cycle number	(Q-Qo)/C	I Range	Ns	step time/s	P/W
2	0	0	0	0	0	0.000000000000000E+000	0.449961	0.450293	-0.0114913	1	0.0000000E+000	11	0	0.000000000000000E+000	-5.17444e-06
2	1	0	1	0	0	12.2565	0.511244	0.511525	0.138725	1	0.00130574	11	0	12.2015	7.09612e-05
2	1	0	1	0	0	24.5581	0.572752	0.573059	0.838758	1	0.00580666	11	0	24.5031	0.000480658
2	1	0	1	0	0	36.8596	0.63426	0.634487	3.56813	1	0.0308961	11	0	36.8046	0.00226393
2	1	0	1	0	0	49.1612	0.695768	0.696146	7.55372	1	0.0987195	11	0	49.1062	0.00525849
2	1	0	0	0	0	61.269	0.643661	0.643995	4.00903	1	0.171323	11	0	61.214	0.00258179
2	1	0	0	0	0	73.5706	0.582153	0.582414	0.989152	1	0.200156	11	0	73.5156	0.000576096
2	1	0	0	0	0	85.8722	0.520645	0.521032	0.00533462	1	0.204437	11	0	85.8172	2.77951e-06
2	0	0	0	0	0	98.1738	0.459137	0.459359	-0.095499	1	0.203654	11	0	12.1016	-4.38683e-05
2	1	0	0	0	1	110.353	0.501793	0.50213	0.120128	2	0.204469	11	0	10.1012	6.03199e-05
2	1	0	0	0	1	122.654	0.563301	0.563613	0.601131	2	0.207753	11	0	22.4028	0.000338805
2	1	0	0	0	1	134.956	0.624809	0.625147	3.00398	2	0.227702	11	0	34.7044	0.00187793
2	1	0	0	0	1	147.258	0.686317	0.68663	6.90215	2	0.287718	11	0	47.006	0.00473922
2	1	0	1	0	1	159.355	0.653162	0.653451	4.55958	2	0.365387	11	0	59.1038	0.00297946
2	1	0	1	0	1	171.657	0.591654	0.591914	1.30472	2	0.399857	11	0	71.4054	0.00077228
2	1	0	1	0	1	183.959	0.530146	0.530505	0.0530783	2	0.406144	11	0	83.707	2.81583e-05
2	0	0	1	0	1	196.26	0.468639	0.468905	-0.0915253	2	0.405577	11	0	10.2014	-4.29166e-05
2	1	0	1	0	0	208.439	0.492292	0.492615	0.10877	3	0.405997	11	0	8.201	5.35817e-05
2	1	0	1	0	0	220.741	0.553799	0.55412	0.430232	3	0.408488	11	0	20.5026	0.0002384
2	1	0	1	0	0	233.042	0.615307	0.615617	2.48272	3	0.424064	11	0	32.8042	0.00152841
2	1	0	1	0	0	245.344	0.676815	0.677122	6.21178	3	0.476631	11	0	45.1058	0.00420613
2	1	0	0	0	0	257.442	0.662664	0.662989	5.12262	3	0.557019	11	0	57.2036	0.00339624
2	1	0	0	0	0	269.743	0.601156	0.601486	1.67567	3	0.597385	11	0	69.5052	0.00100789
2	1	0	0	0	0	282.045	0.539648	0.539941	0.12352	3	0.606213	11	0	81.8068	6.66937e-05
2	0	0	0	0	0	294.347	0.47814	0.478458	-0.0818557	3	0.605963	11	0	8.4012	-3.91645e-05
2	1	0	0	0	1	306.526	0.48279	0.483147	0.0984973	4	0.606022	11	0	6.3008	4.75887e-05
2	1	0	0	0	1	318.827	0.544298	0.544617	0.311776	4	0.607989	11	0	18.6024	0.000169798
2	1	0	0	0	1	331.129	0.605806	0.606124	2.00991	4	0.619899	11	0	30.904	0.00121826
2	1	0	0	0	1	343.43	0.667314	0.667568	5.57382	4	0.665314	11	0	43.2056	0.0037209
2	1	0	1	0	1	355.528	0.672165	0.672534	5.78975	4	0.746761	11	0	55.3034	0.0038938
2	1	0	1	0	1	367.83	0.610657	0.610943	2.09743	4	0.794015	11	0	67.605	0.00128141
2	1	0	1	0	1	380.131	0.549149	0.549379	0.226466	4	0.806124	11	0	79.9066	0.000124415
2	0	0	1	0	1	392.433	0.487641	0.487976	-0.0751152	4	0.806346	11	0	6.501	-3.66544e-05
2	1	0	1	0	0	404.612	0.473289	0.473553	0.0984344	5	0.80607	11	0	4.4006	4.66139e-05
2	1	0	1	0	0	416.913	0.534797	0.535082	0.229376	5	0.807706	11	0	16.7021	0.000122735
2	1	0	1	0	0	429.215	0.596305	0.596522	1.58266	5	0.816634	11	0	29.0037	0.000944093
2	1	0	1	0	0	441.517	0.657813	0.658119	4.90733	5	0.855156	11	0	41.3053	0.00322961
2	1	0	1	0	0	453.614	0.681666	0.682041	6.33776	5	0.93411	11	0	53.403	0.00432262
2	1	0	1	0	0	465.916	0.620158	0.620467	2.5676	5	0.987689	11	0	65.7046	0.00159311
2	1	0	1	0	0	478.218	0.55865	0.558974	0.367589	5	1.00347	11	0	78.0062	0.000205473
2	0	0	1	0	0	490.519	0.497142	0.497544	-0.0631235	5	1.00436	11	0	4.6006	-3.14067e-05
2	1	0	1	0	1	502.698	0.463788	0.464058	0.0920901	6	1.00377	11	0	2.5002	4.27352e-05
2	1	0	1	0	1	515	0.525296	0.525537	0.178022	6	1.0052	11	0	14.8018	9.35572e-05
2	1	0	1	0	1	527.301	0.586804	0.587144	1.21255	6	1.01179	11	0	27.1034	0.000711941
2	1	0	1	0	1	539.603	0.648312	0.64854	4.30414	6	1.04407	11	0	39.405	0.00279141
2	1	0	0	0	1	551.701	0.691167	0.691565	7.1109	6	1.11919	11	0	51.5028	0.00491765
2	1	0	0	0	1	564.002	0.629659	0.629957	3.06202	6	1.18045	11	0	63.8044	0.00192894
2	1	0	0	0	1	576.304	0.568151	0.568498	0.557887	6	1.20064	11	0	76.106	0.000317158
2	0	0	0	0	1	588.606	0.506643	0.506943	-0.0463858	6	1.2025	11	0	2.8004	-2.35149e-05
2	1	0	0	0	0	600.785	0.454287	0.454585	0.0848623	7	1.20164	11	0	0.6	3.85771e-05
2	1	0	0	0	0	613.086	0.515795	0.516066	0.139669	7	1.20293	11	0	12.9016	7.20786e-05
2	1	0	0	0	0	625.388	0.577302	0.577519	0.911219	7	1.20777	11	0	25.2032	0.000526247
2	1	0	0	0	0	637.689	0.63881	0.639082	3.71639	7	1.23428	11	0	37.5048	0.00237508
2	1	0	1	0	0	649.922	0.699994	0.700098	7.71564	7	1.30359	11	0	49.7376	0.0054017
2	1	0	1	0	0	662.089	0.639161	0.639447	3.56692	7	1.37119	11	0	61.9042	0.00228085
2	1	0	1	0	0	674.39	0.577653	0.577924	0.793122	7	1.39613	11	0	74.2058	0.000458364
2	1	0	1	0	0	686.692	0.516145	0.5165	-0.0212367	7	1.39928	11	0	0.9002	-1.09688e-05
2	0	0	1	0	0	698.994	0.454637	0.454987	-0.09741	7	1.3984	11	0	13.2018	-4.43203e-05
2	1	0	1	0	1	711.173	0.506293	0.50662	0.121498	8	1.39939	11	0	11.0014	6.15533e-05
2	1	0	1	0	1	723.474	0.567801	0.568056	0.666169	8	1.40296	11	0	23.303	0.000378422
2	1	0	1	0	1	735.776	0.629309	0.629585	3.15958	8	1.42434	11	0	35.6046	0.00198922
2	1	0	1	0	1	748.077	0.690817	0.691093	7.08241	8	1.48649	11	0	47.9062	0.0048946
2	1	0	0	0	1	760.175	0.648662	0.648955	4.18486	8	1.56075	11	0	60.004	0.00271579
2	1	0	0	0	1	772.477	0.587154	0.587426	1.09921	8	1.59155	11	0	72.3056	0.000645702
2	1	0	0	0	1	784.778	0.525646	0.525883	0.0169747	8	1.59648	11	0	84.6072	8.92668e-06
2	0	0	0	0	1	797.08	0.464138	0.464441	-0.0889926	8	1.59579	11	0	11.3016	-4.13318e-05
2	1	0	0	0	0	809.259	0.496792	0.49712	0.110145	9	1.59638	11	0	9.1012	5.47555e-05
2	1	0	0	0	0	821.561	0.5583	0.558596	0.476793	9	1.59907	11	0	21.4028	0.000266335
2	1	0	0	0	0	833.862	0.619808	0.620117	2.63623	9	1.61591	11	0	33.7044	0.00163477
2	1	0	0	0	0	846.164	0.681316	0.681482	6.42166	9	1.67067	11	0	46.006	0.00437624
2	1	0	1	0	0	858.261	0.658163	0.658491	4.77256	9	1.74897	11	0	58.1037	0.00314269
2	1	0	1	0	0	870.563	0.596655	0.596947	1.44024	9	1.78552	11	0	70.4053	0.000859749
2	1	0	0	0	0	882.865	0.535147	0.535462	0.0742684	9	1.79268	11	0	82.7068	3.9768e-05
2	0	0	0	0	0	895.166	0.473639	0.473949	-0.0835054	9	1.79224	11	0	9.5012	-3.95773e-05
2	1	0	0	0	1	907.345	0.487291	0.487571	0.0996218	10	1.79246	11	0	7.2008	4.85727e-05
2	1	0	0	0	1	919.647	0.548799	0.549168	0.344364	10	1.79457	11	0	19.5024	0.000189114
2	1	0	0	0	1	931.948	0.610307	0.610533	2.15751	10	1.80756	11	0	31.804	0.00131723
2	1	0	0	0	1	944.25	0.671815	0.67211	5.76639	10	1.85514	11	0	44.1056	0.00387565
2	1	0	1	0	1	956.348	0.667664	0.667945	5.32783	10	1.93464	11	0	56.2034	0.0035587
2	1	0	1	0	1	968.649	0.606156	0.606509	1.83404	10	1.97745	11	0	68.505	0.00111236
2	1	0	1	0	1	980.951	0.544648	0.544924	0.160844	10	1.98742	11	0	80.8066	8.76478e-05
2	0	0	1	0	1	993.253	0.48314	0.483506	-0.0760696	10	1.98735	11	0	7.601	-3.67801e-05
2	1	0	1	0	0	1005.43	0.47779	0.478082	0.0983647	11	1.98723	11	0	5.3006	4.70264e-05
2	1	0	1	0	0	1017.73	0.539298	0.5396	0.254663	11	1.98895	11	0	17.6022	0.000137416
2	1	0	1	0	0	1030.03	0.600806	0.60121	1.71551	11	1.99878	11	0	29.9038	0.00103138
2	1	0	1	0	0	1042.34	0.662313	0.662641	5.13058	11	2.03944	11	0	42.2054	0.00339973
2	1	0	0	0	0	1054.43	0.677165	0.677454	5.96679	11	2.11873	11	0	54.3032	0.00404223
2	1	0	0	0	0	1066.74	0.615657	0.615917	2.27766	11	2.1682	11	0	66.6048	0.00140285
2	1	0	0	0	0	1079.04	0.55415	0.554503	0.276323	11	2.18161	11	0	78.9064	0.000153222
2	0	0	0	0	0	1091.34	0.492642	0.492944	-0.0700662	11	2.18208	11	0	5.7008	-3.45387e-05
2	1	0	0	0	1	1103.52	0.468288	0.46857	0.0929261	12	2.18163	11	0	3.4004	4.35424e-05
2	1	0	0	0	1	1115.82	0.529796	0.53009	0.191792	12	2.18311	11	0	15.702	0.000101667
2	1	0	0	0	1	1128.12	0.591304	0.591564	1.33176	12	2.19042	11	0	28.0036	0.000787821
2	1	0	0	0	1	1140.42	0.652812	0.653123	4.50218	12	2.22466	11	0	40.3052	0.00294048
2	1	0	1	0	1	1152.52	0.686667	0.686947	6.6178	12	2.30043	11	0	52.403	0.00454608
2	1	0	1	0	1	1164.82	0.625159	0.625463	2.72072	12	2.35682	11	0	64.7046	0.00170171
2	1	0	1	0	1	1177.12	0.563651	0.56396	0.433621	12	2.3741	11	0	77.0062	0.000244545
2	0	0	1	0	1	1189.43	0.502143	0.502389	-0.053162	12	2.37534	11	0	3.8006	-2.6708e-05
2	1	0	1	0	0	1201.6	0.458787	0.45909	0.0894622	13	2.3746	11	0	1.5002	4.10712e-05
2	1	0	1	0	0	1213.91	0.520295	0.520588	0.149564	13	2.37592	11	0	13.8018	7.78615e-05
2	1	0	1	0	0	1226.21	0.581803	0.582088	1.01094	13	2.38133	11	0	26.1034	0.000588454
2	1	0	1	0	0	1238.51	0.643311	0.643613	3.92144	13	2.40977	11	0	38.405	0.00252389
2	1	0	0	0	0	1250.61	0.696168	0.696425	7.30714	13	2.48038	11	0	50.5028	0.00508888
2	1	0	0	0	0	1262.91	0.63466	0.634969	3.21979	13	2.54371	11	0	62.8044	0.00204447
2	1	0	1	0	0	1275.21	0.573152	0.573478	0.64016	13	2.56548	11	0	75.1059	0.000367118
2	0	0	1	0	0	1287.51	0.511644	0.511936	-0.0318069	13	2.56782	11	0	1.9003	-1.62831e-05
2	0	0	1	0	0	1299.8	0.450211	0.450552	-0.0969851	13	2.56689	11	0	14.1868	-4.36968e-05
2	1	0	1	0	1	1311.99	0.510794	0.511058	0.128881	14	2.56806	11	0	11.9014	6.58656e-05
2	1	0	1	0	1	1324.29	0.572302	0.572651	0.754701	14	2.57208	11	0	24.203	0.00043218
2	1	0	1	0	1	1336.6	0.63381	0.634106	3.36467	14	2.59539	11	0	36.5046	0.00213356
2	1	0	1	0	1	1348.9	0.695318	0.695654	7.27972	14	2.66028	11	0	48.8062	0.00506417
2	1	0	0	0	1	1360.99	0.644161	0.644436	3.82465	14	2.73026	11	0	60.904	0.00246474
2	1	0	0	0	1	1373.3	0.582653	0.582964	0.928228	14	2.75773	11	0	73.2056	0.000541123
2	0	0	0	0	1	1385.6	0.521145	0.521473	-0.00447689	14	2.76166	11	0	0.000000000000000E+000	-2.33458e-06
2	0	0	0	0	1	1397.9	0.459637	0.459936	-0.0908896	14	2.76087	11	0	12.2016	-4.18034e-05
2	1	0	0	0	0	1410.08	0.501293	0.50154	0.111955	15	2.76163	11	0	10.0012	5.61501e-05
2	1	0	0	0	0	1422.38	0.562801	0.563065	0.552918	15	2.76465	11	0	22.3028	0.000311329
2	1	0	0	0	0	1434.68	0.624309	0.624631	2.85778	15	2.78335	11	0	34.6044	0.00178505
2	1	0	0	0	0	1446.98	0.685817	0.686105	6.67245	15	2.84113	11	0	46.906	0.004578
2	1	0	1	0	0	1459.08	0.653662	0.653958	4.40338	15	2.91666	11	0	59.0038	0.00287962
2	1	0	1	0	0	1471.38	0.592154	0.59253	1.24663	15	2.94977	11	0	71.3054	0.000738666
2	1	0	1	0	0	1483.68	0.530646	0.530903	0.0434061	15	2.95571	11	0	83.607	2.30444e-05
2	0	0	1	0	0	1495.99	0.469139	0.469424	-0.0876187	15	2.95513	11	0	10.4014	-4.11303e-05
2	0	0	0	0	0	1499.81	0.450011	0.450293	-0.104535	15	2.95478	11	0	14.2242	-4.70715e-05