File: ACS_Catal_2026/Figures_Na_K/main_figures/data/EC/20240126_2-102_Add_Na/20240125_2-102_008_preconditiioning_elctrode4_01_CVA_C02.mpt
EC-Lab ASCII FILE
Nb header lines : 66

Cyclic Voltammetry Advanced

Run on channel : 2 (SN 66414)
User :
CE vs. WE compliance from -10 V to 10 V
Electrode connection : standard
Potential control : Ewe
Ewe ctrl range : min = -1.00 V, max = 1.00 V
Safety Limits :
	Do not start on E overload
Acquisition started on : 01/26/2024 17:15:30.810
Loaded Setting File :  C:\Users\NakamuraT\Documents\EC-Lab\Data\Yatsuzuka\20240126_2-102_Add_Na\20240125_2-102_007_preconditioning_elctrode3.mps
Saved on :
	File : 20240125_2-102_008_preconditiioning_elctrode4_01_CVA_C02.mpr
	Directory : C:\Users\NakamuraT\Documents\EC-Lab\Data\Yatsuzuka\20240126_2-102_Add_Na\
	Host : 192.109.209.100
Device : SP-150e (SN .003411)
Address : 192.109.209.236
EC-Lab for windows v11.50 (software)
Internet server v11.50 (firmware)
Command interpretor v11.50 (firmware)
Electrode material :
Initial state :
Electrolyte :
Comments :
Electrode surface area : 0.001 cm2
Characteristic mass : 0.001 g
Equivalent Weight : 0.000 g/eq.
Density : 0.000 g/cm3
Volume (V) : 0.001 cm3
Cycle Definition : Charge/Discharge alternance
Ei (V)              0.350
vs.                 Ref
ti (h:m:s)          0:00:10.0000
dti (s)             1.0000
dE/dt               10.000
dE/dt unit          mV/s
E1 (V)              0.450
vs.                 Ref
t1 (h:m:s)          0:00:0.0000
dt1 (s)             0.1000
Step percent        50
N                   10
E range min (V)     -1.000
E range max (V)     1.000
I Range             Auto
I Range min         Unset
I Range max         Unset
I Range init        Unset
Bandwidth           5
E2 (V)              0.350
vs.                 Ref
t2 (h:m:s)          0:00:0.0000
dt2 (s)             0.1000
nc cycles           9
nr                  1
Reverse Scan        0
Ef (V)              0.000
vs.                 Eoc
tf (h:m:s)          0:00:0.0000
dtf (s)             0.1000

mode	ox/red	error	control changes	Ns changes	counter inc.	time/s	control/V	Ewe/V	<I>/mA	cycle number	(Q-Qo)/C	I Range	Ns	step time/s	P/W
2	1	0	0	0	0	0.000000000000000E+000	0.349998	0.350332	14.794	1	0.0000000E+000	10	0	0.000000000000000E+000	0.00518283
2	1	0	1	0	0	11.1775	0.361725	0.362008	0.43256	1	0.0139271	12	0	10.1741	0.00015659
2	1	0	1	0	0	12.8777	0.378727	0.379029	0.445497	1	0.0146808	12	0	11.8743	0.000168856
2	1	0	1	0	0	14.5779	0.395729	0.395928	0.454452	1	0.0154473	12	0	13.5745	0.00017993
2	1	0	1	0	0	16.2783	0.412731	0.412942	0.449291	1	0.0162178	12	0	15.2749	0.000185531
2	1	0	1	0	0	17.9785	0.429733	0.430063	0.455253	1	0.0169877	12	0	16.9751	0.000195787
2	1	0	1	0	0	19.6787	0.446736	0.447057	0.456442	1	0.0177625	12	0	18.6753	0.000204055
2	0	0	1	0	0	21.3153	0.436884	0.437152	-0.0630583	1	0.0179952	13	0	0.5151	-2.7566e-05
2	0	0	1	0	0	23.0455	0.419582	0.419812	-0.147488	1	0.0177973	12	0	2.2453	-6.19173e-05
2	0	0	1	0	0	24.7457	0.40258	0.402914	-0.19658	1	0.0175009	12	0	3.9455	-7.92047e-05
2	0	0	1	0	0	26.4459	0.385578	0.385917	-0.227965	1	0.0171389	12	0	5.6457	-8.79756e-05
2	0	0	1	0	0	28.1461	0.368576	0.368956	-0.259532	1	0.0167235	12	0	7.3459	-9.57559e-05
2	0	0	1	0	0	29.8463	0.351573	0.351884	-0.287717	1	0.0162583	12	0	9.0461	-0.000101243
2	1	0	1	0	1	31.4791	0.364775	0.365133	0.310687	2	0.0164785	12	0	1.2	0.000113442
2	1	0	1	0	1	33.1795	0.381777	0.382021	0.323127	2	0.0170232	12	0	2.9004	0.000123442
2	1	0	1	0	1	34.8797	0.398779	0.399105	0.313481	2	0.0175636	12	0	4.6006	0.000125112
2	1	0	1	0	1	36.5799	0.415782	0.416171	0.313936	2	0.0180961	12	0	6.3008	0.000130651
2	1	0	1	0	1	38.2801	0.432784	0.433086	0.315431	2	0.0186301	12	0	8.001	0.000136609
2	1	0	1	0	1	39.9778	0.449761	0.450095	0.335064	2	0.0191794	12	0	9.6987	0.00015081
2	0	0	1	0	1	41.5819	0.434184	0.434619	-0.150042	2	0.0190964	12	0	1.2002	-6.52113e-05
2	0	0	1	0	1	43.2821	0.417182	0.417508	-0.198922	2	0.0187964	12	0	2.9004	-8.30514e-05
2	0	0	1	0	1	44.9823	0.40018	0.400495	-0.221262	2	0.0184386	12	0	4.6006	-8.86143e-05
2	0	0	1	0	1	46.6825	0.383177	0.383459	-0.251431	2	0.0180368	12	0	6.3008	-9.64137e-05
2	0	0	1	0	1	48.3827	0.366175	0.36641	-0.269684	2	0.0175938	12	0	8.001	-9.8815e-05
2	0	0	1	0	0	50.0257	0.350273	0.350549	-0.252633	3	0.0171268	12	0	9.644	-8.85603e-05
2	1	0	1	0	0	51.7259	0.367275	0.367573	0.300689	3	0.0174544	12	0	1.4502	0.000110525
2	1	0	1	0	0	53.4261	0.384278	0.384666	0.299261	3	0.0179668	12	0	3.1504	0.000115116
2	1	0	1	0	0	55.1263	0.40128	0.401625	0.289897	3	0.0184685	12	0	4.8506	0.00011643
2	1	0	1	0	0	56.8265	0.418282	0.418573	0.288664	3	0.0189594	12	0	6.5508	0.000120827
2	1	0	1	0	0	58.5267	0.435284	0.435586	0.284961	3	0.0194471	12	0	8.251	0.000124125
2	1	0	1	0	0	60.1283	0.448686	0.449042	0.11511	3	0.0199025	12	0	9.8526	5.16893e-05
2	0	0	1	0	0	61.8285	0.431684	0.431962	-0.176164	3	0.0197017	12	0	1.5002	-7.60963e-05
2	0	0	1	0	0	63.5287	0.414681	0.415001	-0.212719	3	0.0193696	12	0	3.2004	-8.82786e-05
2	0	0	1	0	0	65.2289	0.397679	0.397955	-0.230358	3	0.0189923	12	0	4.9006	-9.16722e-05
2	0	0	1	0	0	66.9292	0.380677	0.380955	-0.258783	3	0.0185768	12	0	6.6009	-9.8585e-05
2	0	0	1	0	0	68.6295	0.363675	0.363962	-0.274046	3	0.0181233	12	0	8.3012	-9.97424e-05
2	1	0	1	0	1	70.2723	0.352774	0.352987	0.034131	4	0.0177013	12	0	0.000000000000000E+000	1.20478e-05
2	1	0	1	0	1	71.9725	0.369776	0.370036	0.294434	4	0.0181149	12	0	1.7002	0.000108951
2	1	0	1	0	1	73.6727	0.386778	0.387046	0.288985	4	0.0186107	12	0	3.4004	0.00011185
2	1	0	1	0	1	75.3729	0.40378	0.404092	0.277248	4	0.0190924	12	0	5.1006	0.000112033
2	1	0	1	0	1	77.0731	0.420782	0.421212	0.276484	4	0.0195621	12	0	6.8008	0.000116458
2	1	0	1	0	1	78.7733	0.437785	0.438061	0.270506	4	0.0200269	12	0	8.501	0.000118498
2	0	0	1	0	1	80.3749	0.446186	0.44646	-0.0639166	4	0.0203896	12	0	0.1	-2.85362e-05
2	0	0	1	0	1	82.0751	0.429183	0.42936	-0.187997	4	0.0201211	12	0	1.8002	-8.07186e-05
2	0	0	1	0	1	83.7753	0.412181	0.412627	-0.221574	4	0.0197727	12	0	3.5004	-9.14273e-05
2	0	0	1	0	1	85.4757	0.395179	0.395483	-0.235639	4	0.0193845	12	0	5.2008	-9.31912e-05
2	0	0	1	0	1	87.1759	0.378177	0.378518	-0.262366	4	0.0189612	12	0	6.901	-9.93103e-05
2	0	0	1	0	1	88.8761	0.361175	0.361505	-0.281547	4	0.0185005	12	0	8.6012	-0.00010178
2	1	0	1	0	0	90.5189	0.355274	0.355611	0.170057	5	0.018176	12	0	0.25	6.04742e-05
2	1	0	1	0	0	92.2191	0.372276	0.372566	0.285666	5	0.0186274	12	0	1.9502	0.000106429
2	1	0	1	0	0	93.9193	0.389278	0.389616	0.284509	5	0.0191117	12	0	3.6504	0.000110849
2	1	0	1	0	0	95.6195	0.40628	0.406651	0.268267	5	0.0195804	12	0	5.3506	0.000109091
2	1	0	1	0	0	97.3197	0.423283	0.423655	0.268027	5	0.0200362	12	0	7.0508	0.000113551
2	1	0	1	0	0	99.0199	0.440285	0.440582	0.266237	5	0.0204872	12	0	8.751	0.000117299
2	0	0	1	0	0	100.621	0.443685	0.443979	-0.131893	5	0.0207418	12	0	0.35	-5.8558e-05
2	0	0	1	0	0	102.322	0.426684	0.426981	-0.198836	5	0.0204403	12	0	2.0503	-8.48991e-05
2	0	0	1	0	0	104.022	0.409681	0.410006	-0.220118	5	0.0200814	12	0	3.7506	-9.02498e-05
2	0	0	1	0	0	105.722	0.392679	0.392986	-0.245913	5	0.0196861	12	0	5.4508	-9.66403e-05
2	0	0	1	0	0	107.422	0.375676	0.375949	-0.259903	5	0.0192567	12	0	7.151	-9.77101e-05
2	0	0	1	0	0	109.123	0.358674	0.359004	-0.287985	5	0.0187913	12	0	8.8512	-0.000103388
2	1	0	1	0	1	110.765	0.357774	0.358158	0.22725	6	0.018588	12	0	0.5	8.13913e-05
2	1	0	1	0	1	112.466	0.374776	0.375104	0.286557	6	0.0190547	12	0	2.2002	0.000107489
2	1	0	1	0	1	114.166	0.391779	0.392077	0.271256	6	0.0195299	12	0	3.9004	0.000106353
2	1	0	1	0	1	115.866	0.408781	0.40916	0.268576	6	0.0199885	12	0	5.6006	0.00010989
2	1	0	1	0	1	117.566	0.425783	0.426091	0.260581	6	0.0204347	12	0	7.3008	0.000111031
2	1	0	1	0	1	119.267	0.442785	0.443078	0.258271	6	0.0208762	12	0	9.0012	0.000114434
2	0	0	1	0	1	120.868	0.441185	0.441446	-0.162002	6	0.0210179	12	0	0.6002	-7.15152e-05
2	0	0	1	0	1	122.568	0.424183	0.424412	-0.201388	6	0.020698	12	0	2.3004	-8.54715e-05
2	0	0	1	0	1	124.269	0.407181	0.407567	-0.230438	6	0.0203311	12	0	4.0006	-9.39189e-05
2	0	0	1	0	1	125.969	0.390178	0.390468	-0.243915	6	0.0199303	12	0	5.7008	-9.52409e-05
2	0	0	1	0	1	127.669	0.373176	0.373508	-0.264827	6	0.0194965	12	0	7.401	-9.89148e-05
2	0	0	1	0	1	129.369	0.356174	0.356401	-0.290979	6	0.0190264	12	0	9.1012	-0.000103705
2	1	0	1	0	0	131.012	0.360274	0.360535	0.260027	7	0.0189565	12	0	0.75	9.37488e-05
2	1	0	1	0	0	132.712	0.377277	0.377545	0.280382	7	0.0194285	12	0	2.4502	0.000105857
2	1	0	1	0	0	134.412	0.394279	0.394593	0.266724	7	0.0198956	12	0	4.1504	0.000105247
2	1	0	1	0	0	136.113	0.411281	0.411693	0.264022	7	0.0203461	12	0	5.8507	0.000108696
2	1	0	1	0	0	137.813	0.428283	0.428488	0.252958	7	0.0207841	12	0	7.551	0.00010839
2	1	0	1	0	0	139.513	0.445286	0.445621	0.254124	7	0.0212174	12	0	9.2512	0.000113243
2	0	0	1	0	0	141.115	0.438685	0.438956	-0.176957	7	0.0212456	12	0	0.8502	-7.76764e-05
2	0	0	1	0	0	142.815	0.421682	0.421989	-0.206156	7	0.0209133	12	0	2.5504	-8.69956e-05
2	0	0	1	0	0	144.515	0.40468	0.405037	-0.232469	7	0.0205401	12	0	4.2506	-9.41585e-05
2	0	0	1	0	0	146.215	0.387678	0.388015	-0.246495	7	0.0201344	12	0	5.9508	-9.56439e-05
2	0	0	1	0	0	147.916	0.370676	0.370957	-0.265731	7	0.0196961	12	0	7.651	-9.85749e-05
2	0	0	1	0	0	149.616	0.353674	0.353924	-0.293878	7	0.0192213	12	0	9.3512	-0.00010401
2	1	0	1	0	1	151.259	0.362775	0.363051	0.271645	8	0.0192893	12	0	1	9.8621e-05
2	1	0	1	0	1	152.959	0.379777	0.380036	0.277155	8	0.0197608	12	0	2.7002	0.000105329
2	1	0	1	0	1	154.659	0.396779	0.397075	0.261821	8	0.0202212	12	0	4.4006	0.000103962
2	1	0	1	0	1	156.359	0.413781	0.414024	0.25995	8	0.0206649	12	0	6.1008	0.000107625
2	1	0	1	0	1	158.06	0.430784	0.431077	0.250915	8	0.0210965	12	0	7.801	0.000108164
2	1	0	1	0	1	159.76	0.447786	0.448087	0.250471	8	0.0215242	12	0	9.5012	0.000112233
2	0	0	1	0	1	161.361	0.436184	0.436461	-0.18846	8	0.0214383	12	0	1.1002	-8.22554e-05
2	0	0	1	0	1	163.062	0.419182	0.419506	-0.2098	8	0.0210967	12	0	2.8004	-8.80126e-05
2	0	0	1	0	1	164.762	0.40218	0.402569	-0.23476	8	0.0207183	12	0	4.5006	-9.45069e-05
2	0	0	1	0	1	166.462	0.385178	0.385488	-0.252149	8	0.0203084	12	0	6.2008	-9.72004e-05
2	0	0	1	0	1	168.162	0.368176	0.368446	-0.267741	8	0.019866	12	0	7.901	-9.86481e-05
2	0	0	1	0	1	169.862	0.351173	0.351519	-0.29655	8	0.0193876	12	0	9.6012	-0.000104243
2	1	0	1	0	0	171.505	0.365275	0.365599	0.272305	9	0.0195966	12	0	1.2501	9.95542e-05
2	1	0	1	0	0	173.206	0.382277	0.382527	0.275599	9	0.0200653	12	0	2.9504	0.000105424
2	1	0	1	0	0	174.906	0.39928	0.399584	0.259459	9	0.0205195	12	0	4.6506	0.000103676
2	1	0	1	0	0	176.606	0.416282	0.416569	0.250758	9	0.0209566	12	0	6.3508	0.000104458
2	1	0	1	0	0	178.306	0.433284	0.433592	0.251832	9	0.0213823	12	0	8.051	0.000109192
2	1	0	0	0	0	179.975	0.450011	0.450522	0.254523	9	0.0217978	12	0	9.7201	0.000114668
2	0	0	1	0	0	181.608	0.433684	0.433964	-0.192964	9	0.021606	12	0	1.3502	-8.37397e-05
2	0	0	1	0	0	183.308	0.416682	0.417095	-0.219173	9	0.021257	12	0	3.0504	-9.14161e-05
2	0	0	1	0	0	185.008	0.39968	0.400005	-0.231078	9	0.0208738	12	0	4.7506	-9.24322e-05
2	0	0	1	0	0	186.709	0.382677	0.382956	-0.251987	9	0.0204601	12	0	6.4508	-9.65e-05
2	0	0	1	0	0	188.409	0.365675	0.365939	-0.276582	9	0.0200134	12	0	8.151	-0.000101212
2	0	0	1	0	1	190.052	0.350773	0.351057	-0.169938	10	0.0195525	12	0	9.794	-5.96578e-05
2	1	0	1	0	1	191.752	0.367775	0.368087	0.278199	10	0.0198805	12	0	1.5002	0.000102401
2	1	0	1	0	1	193.452	0.384778	0.38509	0.266201	10	0.0203454	12	0	3.2004	0.000102511
2	1	0	1	0	1	195.152	0.40178	0.402048	0.258338	10	0.0207935	12	0	4.9006	0.000103864
2	1	0	1	0	1	196.853	0.418782	0.419017	0.254101	10	0.0212254	12	0	6.6008	0.000106473
2	1	0	1	0	1	198.553	0.435784	0.436075	0.245007	10	0.0216461	12	0	8.301	0.000106841
2	1	0	1	0	1	200.154	0.448186	0.448467	0.0221068	10	0.022017	12	0	9.9026	9.91414e-06
2	0	0	1	0	1	201.855	0.431184	0.431483	-0.200415	10	0.0217525	12	0	1.6002	-8.64757e-05
2	0	0	1	0	1	203.555	0.414181	0.414324	-0.216585	10	0.0213975	12	0	3.3004	-8.97363e-05
2	0	0	1	0	1	205.255	0.397179	0.397474	-0.233492	10	0.0210102	12	0	5.0006	-9.28069e-05
2	0	0	1	0	1	206.955	0.380177	0.380357	-0.257729	10	0.0205922	12	0	6.701	-9.80291e-05
2	0	0	1	0	1	208.656	0.363175	0.363403	-0.275866	10	0.020141	12	0	8.4012	-0.00010025
2	0	0	0	0	1	209.971	0.349998	0.35018	-0.301433	10	0.0197668	12	0	9.7163	-0.000105556