File: ACS_Catal_2026/Figures_Na_K/main_figures/data/EC/20240126_2-102_Add_Na/20240125_2-102_004_K_elctrode2_C02.mpt
EC-Lab ASCII FILE
Nb header lines : 66

Cyclic Voltammetry Advanced

Run on channel : 2 (SN 66414)
User :
CE vs. WE compliance from -10 V to 10 V
Electrode connection : standard
Potential control : Ewe
Ewe ctrl range : min = -1.00 V, max = 1.00 V
Safety Limits :
	Do not start on E overload
Acquisition started on : 01/26/2024 15:53:38.332
Loaded Setting File :  C:\Users\NakamuraT\Documents\EC-Lab\Data\Yatsuzuka\20240126_2-102_Add_Na\20240125_2-102_003_K_elctrode1_C01.mpr
Saved on :
	File : 20240125_2-102_004_K_elctrode2_C02.mpr
	Directory : C:\Users\NakamuraT\Documents\EC-Lab\Data\Yatsuzuka\20240126_2-102_Add_Na\
	Host : 192.109.209.100
Device : SP-150e (SN .003411)
Address : 192.109.209.236
EC-Lab for windows v11.50 (software)
Internet server v11.50 (firmware)
Command interpretor v11.50 (firmware)
Electrode material :
Initial state :
Electrolyte :
Comments :
Electrode surface area : 0.001 cm2
Characteristic mass : 0.001 g
Equivalent Weight : 0.000 g/eq.
Density : 0.000 g/cm3
Volume (V) : 0.001 cm3
Cycle Definition : Charge/Discharge alternance
Ei (V)              0.450
vs.                 Ref
ti (h:m:s)          0:00:10.0000
dti (s)             0.0000
dE/dt               5.000
dE/dt unit          mV/s
E1 (V)              0.700
vs.                 Ref
t1 (h:m:s)          0:00:0.0000
dt1 (s)             0.1000
Step percent        50
N                   10
E range min (V)     -1.000
E range max (V)     1.000
I Range             10 mA
I Range min         Unset
I Range max         Unset
I Range init        Unset
Bandwidth           5
E2 (V)              0.450
vs.                 Ref
t2 (h:m:s)          0:00:0.0000
dt2 (s)             0.1000
nc cycles           14
nr                  1
Reverse Scan        0
Ef (V)              0.000
vs.                 Eoc
tf (h:m:s)          0:00:0.0000
dtf (s)             0.1000

mode	ox/red	error	control changes	Ns changes	counter inc.	time/s	control/V	Ewe/V	<I>/mA	cycle number	(Q-Qo)/C	I Range	Ns	step time/s	P/W
2	1	0	1	0	0	0.000000000000000E+000	0.449961	0.450293	0.0044244	1	0.0000000E+000	11	0	0.000000000000000E+000	1.99228e-06
2	1	0	1	0	0	12.2565	0.511244	0.511579	0.156094	1	0.00125581	11	0	12.2015	7.98546e-05
2	1	0	1	0	0	24.5581	0.572752	0.573083	0.813639	1	0.00600072	11	0	24.5031	0.000466283
2	1	0	0	0	0	36.8596	0.63426	0.634576	3.08293	1	0.0283062	11	0	36.8046	0.00195635
2	1	0	0	0	0	49.1612	0.695768	0.696111	6.44568	1	0.0862166	11	0	49.1062	0.00448691
2	1	0	1	0	0	61.269	0.643661	0.643918	3.30409	1	0.147166	11	0	61.214	0.00212756
2	1	0	1	0	0	73.5706	0.582153	0.582424	0.802258	1	0.17078	11	0	73.5156	0.000467254
2	1	0	1	0	0	85.8722	0.520645	0.520952	0.0204704	1	0.1744	11	0	85.8172	1.06641e-05
2	0	0	1	0	0	98.1738	0.459137	0.459392	-0.0573324	1	0.174007	11	0	10.8014	-2.63381e-05
2	1	0	1	0	1	110.353	0.501793	0.502084	0.0842247	2	0.174592	11	0	10.1012	4.22879e-05
2	1	0	1	0	1	122.654	0.563301	0.563595	0.470278	2	0.177134	11	0	22.4028	0.000265046
2	1	0	1	0	1	134.956	0.624809	0.62514	2.39475	2	0.192872	11	0	34.7044	0.00149705
2	1	0	1	0	1	147.258	0.686317	0.686568	5.6567	2	0.241592	11	0	47.006	0.00388371
2	1	0	0	0	1	159.355	0.653162	0.653397	3.64088	2	0.304921	11	0	59.1038	0.00237894
2	1	0	0	0	1	171.657	0.591654	0.591848	0.98829	2	0.331822	11	0	71.4054	0.000584917
2	1	0	0	0	1	183.959	0.530146	0.530406	0.0482901	2	0.336577	11	0	83.707	2.56134e-05
2	0	0	0	0	1	196.26	0.468639	0.46892	-0.0525954	2	0.336308	11	0	9.4012	-2.4663e-05
2	1	0	0	0	0	208.439	0.492292	0.492583	0.0733543	3	0.336607	11	0	8.201	3.61331e-05
2	1	0	0	0	0	220.741	0.553799	0.5542	0.312449	3	0.338394	11	0	20.5026	0.000173159
2	1	0	0	0	0	233.042	0.615307	0.615542	1.89763	3	0.350013	11	0	32.8042	0.00116807
2	1	0	0	0	0	245.344	0.676815	0.677114	4.9967	3	0.391434	11	0	45.1058	0.00338334
2	1	0	1	0	0	257.442	0.662664	0.662932	4.07965	3	0.456494	11	0	57.2036	0.00270453
2	1	0	1	0	0	269.743	0.601156	0.601461	1.24866	3	0.487826	11	0	69.5052	0.000751024
2	1	0	1	0	0	282.045	0.539648	0.539867	0.0942207	3	0.494279	11	0	81.8068	5.08666e-05
2	0	0	1	0	0	294.347	0.47814	0.478406	-0.0515669	3	0.494213	11	0	7.701	-2.46699e-05
2	1	0	1	0	1	306.526	0.48279	0.483187	0.0643699	4	0.494273	11	0	6.3008	3.11027e-05
2	1	0	1	0	1	318.827	0.544298	0.544634	0.217358	4	0.49562	11	0	18.6024	0.00011838
2	1	0	1	0	1	331.129	0.605806	0.606059	1.47784	4	0.504132	11	0	30.904	0.000895659
2	1	0	1	0	1	343.43	0.667314	0.667567	4.39494	4	0.539051	11	0	43.2056	0.00293392
2	1	0	0	0	1	355.528	0.672165	0.672478	4.53503	4	0.603872	11	0	55.3034	0.00304971
2	1	0	0	0	1	367.83	0.610657	0.611023	1.54909	4	0.640042	11	0	67.605	0.000946527
2	1	0	0	0	1	380.131	0.549149	0.549491	0.158196	4	0.648601	11	0	79.9066	8.69272e-05
2	0	0	0	0	1	392.433	0.487641	0.487952	-0.0456886	4	0.648825	11	0	6.0008	-2.22938e-05
2	1	0	0	0	0	404.612	0.473289	0.473608	0.0608937	5	0.648673	11	0	4.4006	2.88397e-05
2	1	0	1	0	0	416.913	0.534797	0.535058	0.157121	5	0.64976	11	0	16.7021	8.40689e-05
2	1	0	1	0	0	429.215	0.596305	0.596564	1.12116	5	0.655909	11	0	29.0037	0.000668843
2	1	0	1	0	0	441.517	0.657813	0.658107	3.82	5	0.68489	11	0	41.3053	0.00251397
2	1	0	0	0	0	453.614	0.681666	0.682019	5.05768	5	0.747702	11	0	53.403	0.00344944
2	1	0	0	0	0	465.916	0.620158	0.620509	1.89524	5	0.78944	11	0	65.7046	0.00117602
2	1	0	0	0	0	478.218	0.55865	0.558992	0.247842	5	0.800637	11	0	78.0062	0.000138542
2	0	0	0	0	0	490.519	0.497142	0.497527	-0.034952	5	0.801278	11	0	4.3004	-1.73895e-05
2	1	0	0	0	1	502.698	0.463788	0.464212	0.0585032	6	0.800938	11	0	2.5002	2.71579e-05
2	1	0	0	0	1	515	0.525296	0.525564	0.11415	6	0.801861	11	0	14.8018	5.99931e-05
2	1	0	0	0	1	527.301	0.586804	0.587146	0.833311	6	0.806265	11	0	27.1034	0.000489275
2	1	0	0	0	1	539.603	0.648312	0.64867	3.27378	6	0.829902	11	0	39.405	0.0021236
2	1	0	1	0	1	551.701	0.691167	0.691499	5.59141	6	0.88869	11	0	51.5028	0.00386645
2	1	0	1	0	1	564.002	0.629659	0.630009	2.2824	6	0.936144	11	0	63.8044	0.00143794
2	1	0	1	0	1	576.304	0.568151	0.568356	0.364158	6	0.950473	11	0	76.106	0.000206971
2	0	0	1	0	1	588.606	0.506643	0.506946	-0.0246862	6	0.951698	11	0	2.5003	-1.25146e-05
2	1	0	1	0	0	600.785	0.454287	0.454557	0.0502017	7	0.951189	11	0	0.6	2.28195e-05
2	1	0	1	0	0	613.086	0.515795	0.516045	0.0940203	7	0.95201	11	0	12.9016	4.85186e-05
2	1	0	1	0	0	625.388	0.577302	0.57765	0.597471	7	0.955158	11	0	25.2032	0.000345129
2	1	0	1	0	0	637.689	0.63881	0.639072	2.76702	7	0.974034	11	0	37.5048	0.00176833
2	1	0	0	0	0	649.922	0.699994	0.700404	6.11095	7	1.02771	11	0	49.7376	0.00428013
2	1	0	0	0	0	662.089	0.639161	0.639357	2.65746	7	1.08005	11	0	61.9042	0.00169906
2	1	0	0	0	0	674.39	0.577653	0.578027	0.518475	7	1.09783	11	0	74.2058	0.000299693
2	1	0	0	0	0	686.692	0.516145	0.516371	-0.00805195	7	1.09987	11	0	0.7002	-4.15779e-06
2	0	0	0	0	0	698.994	0.454637	0.454871	-0.0590803	7	1.09935	11	0	13.0018	-2.68739e-05
2	1	0	0	0	1	711.173	0.506293	0.506638	0.0783631	8	1.09998	11	0	11.0014	3.97017e-05
2	1	0	0	0	1	723.474	0.567801	0.568098	0.425541	8	1.10226	11	0	23.303	0.000241749
2	1	0	0	0	1	735.776	0.629309	0.629633	2.29464	8	1.11705	11	0	35.6046	0.00144478
2	1	0	0	0	1	748.077	0.690817	0.691136	5.55892	8	1.16451	11	0	47.9062	0.00384197
2	1	0	1	0	1	760.175	0.648662	0.649021	3.12091	8	1.22195	11	0	60.004	0.00202554
2	1	0	1	0	1	772.477	0.587154	0.587411	0.717057	8	1.24388	11	0	72.3056	0.000421207
2	1	0	1	0	1	784.778	0.525646	0.525957	0.0155151	8	1.247	11	0	84.6072	8.16025e-06
2	0	0	1	0	1	797.08	0.464138	0.464389	-0.0543842	8	1.24659	11	0	11.1016	-2.52554e-05
2	1	0	1	0	0	809.259	0.496792	0.497051	0.0673266	9	1.24697	11	0	9.1012	3.34647e-05
2	1	0	1	0	0	821.561	0.5583	0.558662	0.300826	9	1.24867	11	0	21.4028	0.00016806
2	1	0	1	0	0	833.862	0.619808	0.620088	1.85908	9	1.25998	11	0	33.7044	0.00115279
2	1	0	1	0	0	846.164	0.681316	0.681627	4.96905	9	1.30093	11	0	46.006	0.00338704
2	1	0	1	0	0	858.261	0.658163	0.658435	3.59052	9	1.36151	11	0	58.1037	0.00236413
2	1	0	1	0	0	870.563	0.596655	0.596932	0.95771	9	1.38789	11	0	70.4053	0.000571688
2	1	0	1	0	0	882.865	0.535147	0.535463	0.0452243	9	1.39244	11	0	82.7068	2.4216e-05
2	0	0	1	0	0	895.166	0.473639	0.473942	-0.0511423	9	1.39219	11	0	9.3012	-2.42385e-05
2	1	0	1	0	1	907.345	0.487291	0.487574	0.0647462	10	1.39234	11	0	7.2008	3.15686e-05
2	1	0	1	0	1	919.647	0.548799	0.549024	0.212214	10	1.39366	11	0	19.5024	0.00011651
2	1	0	1	0	1	931.948	0.610307	0.610652	1.47599	10	1.40213	11	0	31.804	0.000901317
2	1	0	1	0	1	944.25	0.671815	0.672025	4.39594	10	1.43706	11	0	44.1056	0.00295418
2	1	0	0	0	1	956.348	0.667664	0.667883	4.05572	10	1.49874	11	0	56.2034	0.00270875
2	1	0	0	0	1	968.649	0.606156	0.606534	1.23099	10	1.52992	11	0	68.505	0.000746638
2	1	0	0	0	1	980.951	0.544648	0.544919	0.0925775	10	1.53631	11	0	80.8066	5.04472e-05
2	0	0	0	0	1	993.253	0.48314	0.483463	-0.0466136	10	1.53627	11	0	7.501	-2.2536e-05
2	1	0	0	0	0	1005.43	0.47779	0.477995	0.061584	11	1.53621	11	0	5.3006	2.94368e-05
2	1	0	0	0	0	1017.73	0.539298	0.539646	0.153309	11	1.53729	11	0	17.6022	8.27324e-05
2	1	0	0	0	0	1030.03	0.600806	0.601137	1.13819	11	1.54351	11	0	29.9038	0.000684208
2	1	0	0	0	0	1042.34	0.662313	0.662667	3.84908	11	1.57279	11	0	42.2054	0.00255066
2	1	0	1	0	0	1054.43	0.677165	0.677489	4.59204	11	1.63391	11	0	54.3032	0.00311106
2	1	0	1	0	0	1066.74	0.615657	0.61585	1.57389	11	1.6706	11	0	66.6048	0.000969283
2	1	0	1	0	0	1079.04	0.55415	0.55451	0.161359	11	1.67931	11	0	78.9064	8.94754e-05
2	0	0	1	0	0	1091.34	0.492642	0.49286	-0.0404922	11	1.67958	11	0	5.7008	-1.9957e-05
2	1	0	1	0	1	1103.52	0.468288	0.46859	0.0556948	12	1.67933	11	0	3.4004	2.6098e-05
2	1	0	1	0	1	1115.82	0.529796	0.53013	0.116545	12	1.68025	11	0	15.702	6.17839e-05
2	1	0	1	0	1	1128.12	0.591304	0.591616	0.854705	12	1.68477	11	0	28.0036	0.000505657
2	1	0	1	0	1	1140.42	0.652812	0.653168	3.32083	12	1.70887	11	0	40.3052	0.00216906
2	1	0	0	0	1	1152.52	0.686667	0.686935	5.14296	12	1.7672	11	0	52.403	0.00353288
2	1	0	0	0	1	1164.82	0.625159	0.625516	1.92478	12	1.80944	11	0	64.7046	0.00120398
2	1	0	0	0	1	1177.12	0.563651	0.563938	0.254894	12	1.82093	11	0	77.0062	0.000143744
2	0	0	0	0	1	1189.43	0.502143	0.502346	-0.0336673	12	1.82164	11	0	3.9006	-1.69126e-05
2	1	0	0	0	0	1201.6	0.458787	0.459124	0.0554108	13	1.82121	11	0	1.5002	2.54404e-05
2	1	0	0	0	0	1213.91	0.520295	0.520695	0.0926405	13	1.82202	11	0	13.8018	4.82374e-05
2	1	0	0	0	0	1226.21	0.581803	0.582095	0.626067	13	1.82529	11	0	26.1034	0.00036443
2	1	0	0	0	0	1238.51	0.643311	0.643686	2.83327	13	1.84475	11	0	38.405	0.00182374
2	1	0	1	0	0	1250.61	0.696168	0.696462	5.69954	13	1.89841	11	0	50.5028	0.00396951
2	1	0	1	0	0	1262.91	0.63466	0.634917	2.33727	13	1.94669	11	0	62.8044	0.00148397
2	1	0	1	0	0	1275.21	0.573152	0.573423	0.385229	13	1.96153	11	0	75.1059	0.000220899
2	0	0	1	0	0	1287.51	0.511644	0.511906	-0.0216205	13	1.96288	11	0	2.0003	-1.10677e-05
2	0	0	0	0	0	1299.8	0.450211	0.450515	-0.058148	13	1.96233	11	0	14.2868	-2.61966e-05
2	1	0	0	0	1	1311.99	0.510794	0.511148	0.0768878	14	1.96305	11	0	11.9014	3.93011e-05
2	1	0	0	0	1	1324.29	0.572302	0.572657	0.450074	14	1.96543	11	0	24.203	0.000257738
2	1	0	0	0	1	1336.6	0.63381	0.634121	2.36241	14	1.9808	11	0	36.5046	0.00149806
2	1	0	0	0	1	1348.9	0.695318	0.695579	5.62851	14	2.02919	11	0	48.8062	0.00391507
2	1	0	1	0	1	1360.99	0.644161	0.644483	2.75523	14	2.08205	11	0	60.904	0.0017757
2	1	0	1	0	1	1373.3	0.582653	0.582901	0.551904	14	2.1006	11	0	73.2056	0.000321706
2	1	0	1	0	1	1385.6	0.521145	0.521346	-0.00375375	14	2.10281	11	0	0.2	-1.957e-06
2	0	0	1	0	1	1397.9	0.459637	0.45992	-0.0570727	14	2.10234	11	0	12.5016	-2.62489e-05
2	1	0	1	0	0	1410.08	0.501293	0.501582	0.0672516	15	2.10281	11	0	10.0012	3.37322e-05
2	1	0	1	0	0	1422.38	0.562801	0.563143	0.316245	15	2.10458	11	0	22.3028	0.000178091
2	1	0	1	0	0	1434.68	0.624309	0.6246	1.93727	15	2.11646	11	0	34.6044	0.00121002
2	1	0	1	0	0	1446.98	0.685817	0.686106	5.07316	15	2.15854	11	0	46.906	0.00348072
2	1	0	0	0	0	1459.08	0.653662	0.653998	3.22959	15	2.21579	11	0	59.0038	0.00211215
2	1	0	0	0	0	1471.38	0.592154	0.592417	0.766417	15	2.23869	11	0	71.3054	0.000454038
2	1	0	0	0	0	1483.68	0.530646	0.530974	0.0222893	15	2.2421	11	0	83.607	1.1835e-05
2	0	0	0	0	0	1495.99	0.469139	0.469472	-0.0528243	15	2.24174	11	0	10.6014	-2.47995e-05
2	0	0	1	0	0	1499.81	0.450011	0.450274	-0.0733624	15	2.24153	11	0	14.4242	-3.30331e-05