File: ACS_Catal_2026/Figures_Na_K/main_figures/data/EC/20240126_2-102_Add_Na/20240125_2-102_001_preconditioning_elctrode1_02_PEIS_C01.mpt
EC-Lab ASCII FILE
Nb header lines : 63

Potentio Electrochemical Impedance Spectroscopy

Run on channel : 1 (SN 66412)
User :
CE vs. WE compliance from -10 V to 10 V
Electrode connection : standard
Potential control : Ewe
Ewe ctrl range : min = -1.00 V, max = 1.00 V
Safety Limits :
	Do not start on E overload
Acquisition started on : 01/26/2024 15:44:18.212
Loaded Setting File :  C:\Users\NakamuraT\Documents\EC-Lab\Data\Yatsuzuka\20240125_2-101_K_new_condition\20240125_2-101_001_preconditioning_EIS_elctrode1.mps
Saved on :
	File : 20240125_2-102_001_preconditioning_elctrode1_02_PEIS_C01.mpr
	Directory : C:\Users\NakamuraT\Documents\EC-Lab\Data\Yatsuzuka\20240126_2-102_Add_Na\
	Host : 192.109.209.100
Device : SP-150e (SN .003411)
Address : 192.109.209.236
EC-Lab for windows v11.50 (software)
Internet server v11.50 (firmware)
Command interpretor v11.50 (firmware)
Electrode material :
Initial state :
Electrolyte :
Comments :
Electrode surface area : 0.001 cm2
Characteristic mass : 0.001 g
Equivalent Weight : 0.000 g/eq.
Density : 0.000 g/cm3
Volume (V) : 0.001 cm3
Cycle Definition : Charge/Discharge alternance
Mode                Single sine
E (V)               0.4000
vs.                 Eoc
tE (h:m:s)          0:00:0.0000
record              0
dI                  0.000
unit dI             mA
dt (s)              0.000
fi                  500.000
unit fi             kHz
ff                  1.000
unit ff             Hz
Nd                  6
Points              per decade
spacing             Logarithmic
Va (mV)             10.0
pw                  0.10
Na                  2
corr                0
E range min (V)     -1.000
E range max (V)     1.000
I Range             Auto
Bandwidth           5
nc cycles           0
goto Ns'            0
nr cycles           0
inc. cycle          0

freq/Hz	Re(Z)/Ohm	-Im(Z)/Ohm	|Z|/Ohm	Phase(Z)/deg	time/s	<Ewe>/V	<I>/mA	Cs/uF	Cp/uF	cycle number	I Range	|Ewe|/V	|I|/A	Ns	(Q-Qo)/mA.h	Re(Y)/Ohm-1	Im(Y)/Ohm-1	|Y|/Ohm-1	Phase(Y)/deg	Re(C)/nF	Im(C)/nF	|C|/nF	Phase(C)/deg	Re(M)	Im(M)	|M|	Phase(M)/deg	Re(Permittivity)	Im(Permittivity)	|Permittivity|	Phase(Permittivity)/deg	Re(Resistivity)/Ohm.cm	Im(Resistivity)/Ohm.cm	|Resistivity|/Ohm.cm	Phase(Resistivity)/deg	Re(Conductivity)/mS/cm	Im(Conductivity)/mS/cm	|Conductivity|/mS/cm	Phase(Conductivity)/deg	Tan(Delta)	Loss Angle(Delta)/deg	dq/mA.h
500019	21.1522	-4.04827	21.5361	10.8347	211.007	0.373512	0.0996176	-0.0786257	-0.00277824	1	10	0.00948868	0.000440594	0	7.51769e-05	0.0456059	-0.00872841	0.0464336	-10.8347	-2.77824	14.5163	14.7797	-100.835	0.0000000E+000	0.0000000E+000	0.0000000E+000	100.835	0.0000000E+000	0.0000000E+000	0.0000000E+000	-100.835	0.0000000E+000	0.0000000E+000	0.0000000E+000	10.8347	0.0000000E+000	0.0000000E+000	0.0000000E+000	-10.8347	5.22499	79.1653	7.51769e-05
231063	12.0132	-1.8463	12.1543	8.73734	211.852	0.373389	-0.00298724	-0.373069	-0.00860862	1	10	0.0109238	0.000898762	0	7.95388e-05	0.0813207	-0.0124981	0.0822755	-8.73734	-8.60862	56.0134	56.6711	-98.7373	0.0000000E+000	0.0000000E+000	0.0000000E+000	98.7373	0.0000000E+000	0.0000000E+000	0.0000000E+000	-98.7373	0.0000000E+000	0.0000000E+000	0.0000000E+000	8.73734	0.0000000E+000	0.0000000E+000	0.0000000E+000	-8.73734	6.50667	81.2627	-6.80849e-07
106786	11.0781	-0.560863	11.0923	2.89829	212.832	0.373401	-0.0095534	-2.65734	-0.00679386	1	10	0.0107642	0.000970422	0	7.71346e-05	0.0900371	-0.0045584	0.0901525	-2.89829	-6.79386	134.192	134.364	-92.8983	0.0000000E+000	0.0000000E+000	0.0000000E+000	92.8983	0.0000000E+000	0.0000000E+000	0.0000000E+000	-92.8983	0.0000000E+000	0.0000000E+000	0.0000000E+000	2.89829	0.0000000E+000	0.0000000E+000	0.0000000E+000	-2.89829	19.7519	87.1017	-1.99708e-06
49352.4	10.9649	-0.216387	10.9671	1.13056	213.676	0.37341	-0.0112234	-14.9032	-0.00580181	1	10	0.0104795	0.000955542	0	7.33747e-05	0.0911644	-0.00179908	0.0911821	-1.13056	-5.8018	293.993	294.051	-91.1306	0.0000000E+000	0.0000000E+000	0.0000000E+000	91.1306	0.0000000E+000	0.0000000E+000	0.0000000E+000	-91.1306	0.0000000E+000	0.0000000E+000	0.0000000E+000	1.13056	0.0000000E+000	0.0000000E+000	0.0000000E+000	-1.13056	50.6727	88.8694	-1.89946e-06
22806.6	10.9405	-0.0904896	10.9408	0.473889	214.522	0.373406	-0.0137853	-77.119	-0.00527545	1	10	0.0103284	0.000944021	0	6.86044e-05	0.0913977	-0.00075596	0.0914008	-0.473889	-5.27548	637.816	637.838	-90.4739	0.0000000E+000	0.0000000E+000	0.0000000E+000	90.4739	0.0000000E+000	0.0000000E+000	0.0000000E+000	-90.4739	0.0000000E+000	0.0000000E+000	0.0000000E+000	0.473889	0.0000000E+000	0.0000000E+000	0.0000000E+000	-0.473889	120.903	89.5261	-2.07738e-06
10540.4	10.9354	-0.0469412	10.9355	0.245946	215.366	0.373415	-0.0115947	-321.669	-0.00592707	1	10	0.0101061	0.000924155	0	6.36437e-05	0.0914444	-0.000392533	0.0914452	-0.245946	-5.92714	1380.77	1380.78	-90.2459	0.0000000E+000	0.0000000E+000	0.0000000E+000	90.2459	0.0000000E+000	0.0000000E+000	0.0000000E+000	-90.2459	0.0000000E+000	0.0000000E+000	0.0000000E+000	0.245946	0.0000000E+000	0.0000000E+000	0.0000000E+000	-0.245946	232.96	89.7541	-1.95219e-06
4871.56	10.9327	-0.020171	10.9327	0.105712	216.411	0.373432	-0.0112327	-1619.66	-0.00551347	1	10	0.0101631	0.000929605	0	6.17473e-05	0.0914685	-0.000168761	0.0914687	-0.105712	-5.51353	2988.3	2988.3	-90.1057	0.0000000E+000	0.0000000E+000	0.0000000E+000	90.1057	0.0000000E+000	0.0000000E+000	0.0000000E+000	-90.1057	0.0000000E+000	0.0000000E+000	0.0000000E+000	0.105712	0.0000000E+000	0.0000000E+000	0.0000000E+000	-0.105712	542	89.8943	-3.46763e-07
2250.72	10.9309	-0.00286842	10.9309	0.0150352	217.342	0.373431	-0.0114193	-24652.2	-0.00169757	1	10	0.0103727	0.000948933	0	5.91598e-05	0.0914835	-2.40065e-05	0.0914835	-0.0150352	-1.69784	6469.06	6469.06	-90.015	0.0000000E+000	0.0000000E+000	0.0000000E+000	90.015	0.0000000E+000	0.0000000E+000	0.0000000E+000	-90.015	0.0000000E+000	0.0000000E+000	0.0000000E+000	0.0150352	0.0000000E+000	0.0000000E+000	0.0000000E+000	-0.0150352	3810.78	89.985	-1.99401e-06
1040.33	10.9287	0.00130247	10.9287	-0.00682848	218.273	0.373434	-0.0107084	117457	0.00166833	1	10	0.010422	0.000953641	0	5.59255e-05	0.0915024	1.09052e-05	0.0915024	0.00682848	1.66829	13998.5	13998.5	-89.9932	0.0000000E+000	0.0000000E+000	0.0000000E+000	89.9932	0.0000000E+000	0.0000000E+000	0.0000000E+000	-89.9932	0.0000000E+000	0.0000000E+000	0.0000000E+000	-0.00682848	0.0000000E+000	0.0000000E+000	0.0000000E+000	0.00682848	8390.71	89.9932	-1.25548e-06
480.769	10.9367	0.015256	10.9368	-0.0799235	219.203	0.373435	-0.0113391	21699.2	0.0422227	1	10	0.0104358	0.000954194	0	5.25133e-05	0.0914347	0.000127545	0.0914348	0.0799235	42.2238	30268.7	30268.8	-89.9201	0.0000000E+000	0.0000000E+000	0.0000000E+000	89.9201	0.0000000E+000	0.0000000E+000	0.0000000E+000	-89.9201	0.0000000E+000	0.0000000E+000	0.0000000E+000	-0.0799235	0.0000000E+000	0.0000000E+000	0.0000000E+000	0.0799235	716.883	89.9201	-1.62929e-06
222.061	10.9252	0.0374099	10.9252	-0.196191	220.128	0.373427	-0.0113018	19158.5	0.224633	1	10	0.0104339	0.000955027	0	4.99704e-05	0.0915307	0.000313419	0.0915312	0.196191	224.631	65601.7	65602.1	-89.8038	0.0000000E+000	0.0000000E+000	0.0000000E+000	89.8038	0.0000000E+000	0.0000000E+000	0.0000000E+000	-89.8038	0.0000000E+000	0.0000000E+000	0.0000000E+000	-0.196191	0.0000000E+000	0.0000000E+000	0.0000000E+000	0.196191	292.039	89.8038	-5.10061e-07
102.667	10.9351	0.0696783	10.9353	-0.365083	221.065	0.373433	-0.0113577	22248	0.903283	1	10	0.0104432	0.000954996	0	4.61026e-05	0.0914451	0.000582688	0.091447	0.365083	903.278	141758	141761	-89.6349	0.0000000E+000	0.0000000E+000	0.0000000E+000	89.6349	0.0000000E+000	0.0000000E+000	0.0000000E+000	-89.6349	0.0000000E+000	0.0000000E+000	0.0000000E+000	-0.365083	0.0000000E+000	0.0000000E+000	0.0000000E+000	0.365083	156.937	89.6349	-2.30241e-06
47.4443	10.9445	0.135393	10.9454	-0.70876	221.976	0.37342	-0.0118466	24776.5	3.79115	1	10	0.0104451	0.00095429	0	4.13956e-05	0.0913559	0.00113015	0.0913628	0.70876	3791.17	306459	306482	-89.2912	0.0000000E+000	0.0000000E+000	0.0000000E+000	89.2912	0.0000000E+000	0.0000000E+000	0.0000000E+000	-89.2912	0.0000000E+000	0.0000000E+000	0.0000000E+000	-0.70876	0.0000000E+000	0.0000000E+000	0.0000000E+000	0.70876	80.8353	89.2912	-2.63512e-06
21.9144	10.9542	0.284364	10.9579	-1.48703	222.844	0.373403	-0.0109491	25539.7	17.1993	1	10	0.0104471	0.00095339	0	3.6134e-05	0.0912279	0.00236822	0.0912587	1.48703	17199.4	662548	662772	-88.513	0.0000000E+000	0.0000000E+000	0.0000000E+000	88.513	0.0000000E+000	0.0000000E+000	0.0000000E+000	-88.513	0.0000000E+000	0.0000000E+000	0.0000000E+000	-1.48703	0.0000000E+000	0.0000000E+000	0.0000000E+000	1.48703	38.5217	88.513	-4.18238e-06
10.1329	10.9576	0.593674	10.9737	-3.1012	223.771	0.373421	-0.0164815	26456.8	77.433	1	10	0.0104536	0.000952609	0	3.69125e-05	0.0909935	0.00492994	0.0911269	3.1012	77432.9	1.42921e+06	1.4313e+06	-86.8988	0.0000000E+000	0.0000000E+000	0.0000000E+000	86.8988	0.0000000E+000	0.0000000E+000	0.0000000E+000	-86.8988	0.0000000E+000	0.0000000E+000	0.0000000E+000	-3.1012	0.0000000E+000	0.0000000E+000	0.0000000E+000	3.1012	18.4573	86.8988	2.82711e-06
4.68375	10.9883	1.30238	11.0652	-6.7594	224.821	0.37342	0.00860526	26090.9	361.447	1	11	0.0104618	0.000945466	0	2.48916e-05	0.0897452	0.010637	0.0903734	6.7594	361447	3.04956e+06	3.07091e+06	-83.2406	0.0000000E+000	0.0000000E+000	0.0000000E+000	83.2406	0.0000000E+000	0.0000000E+000	0.0000000E+000	-83.2406	0.0000000E+000	0.0000000E+000	0.0000000E+000	-6.7594	0.0000000E+000	0.0000000E+000	0.0000000E+000	6.7594	8.4371	83.2406	-1.16496e-05
2.16533	11.0728	2.73533	11.4057	-13.876	226.534	0.373436	-4.65039e-05	26871.2	1545.48	1	11	0.0104606	0.000917139	0	4.32861e-05	0.0851169	0.0210265	0.0876755	13.876	1.54548e+06	6.25622e+06	6.44429e+06	-76.124	0.0000000E+000	0.0000000E+000	0.0000000E+000	76.124	0.0000000E+000	0.0000000E+000	0.0000000E+000	-76.124	0.0000000E+000	0.0000000E+000	0.0000000E+000	-13.876	0.0000000E+000	0.0000000E+000	0.0000000E+000	13.876	4.04809	76.124	1.79178e-05
1.00006	11.3286	5.75758	12.7077	-26.9412	230.143	0.373438	0.00329223	27640.9	5674.08	1	11	0.010462	0.000823275	0	4.35655e-05	0.0701519	0.0356536	0.0786922	26.9412	5.67408e+06	1.11643e+07	1.25235e+07	-63.0588	0.0000000E+000	0.0000000E+000	0.0000000E+000	63.0588	0.0000000E+000	0.0000000E+000	0.0000000E+000	-63.0588	0.0000000E+000	0.0000000E+000	0.0000000E+000	-26.9412	0.0000000E+000	0.0000000E+000	0.0000000E+000	26.9412	1.9676	63.0588	-1.3123e-05