File: ACS_Catal_2026/Figures_Na_K/main_figures/data/EC/20240126_2-102_Add_Na/20240201_2-102_015_K_elctrode5_C01.mpt
EC-Lab ASCII FILE
Nb header lines : 66

Cyclic Voltammetry Advanced

Run on channel : 1 (SN 66412)
User :
CE vs. WE compliance from -10 V to 10 V
Electrode connection : standard
Potential control : Ewe
Ewe ctrl range : min = -1.00 V, max = 1.00 V
Safety Limits :
	Do not start on E overload
Acquisition started on : 02/01/2024 14:51:51.460
Loaded Setting File :  C:\Users\NakamuraT\Documents\EC-Lab\Data\Yatsuzuka\20240126_2-102_Add_Na\20240201_2-102_006_K_elctrode6.mps
Saved on :
	File : 20240201_2-102_015_K_elctrode5_C01.mpr
	Directory : C:\Users\NakamuraT\Documents\EC-Lab\Data\Yatsuzuka\20240126_2-102_Add_Na\
	Host : 192.109.209.100
Device : SP-150e (SN .003411)
Address : 192.109.209.236
EC-Lab for windows v11.50 (software)
Internet server v11.50 (firmware)
Command interpretor v11.50 (firmware)
Electrode material :
Initial state :
Electrolyte :
Comments :
Electrode surface area : 0.001 cm2
Characteristic mass : 0.001 g
Equivalent Weight : 0.000 g/eq.
Density : 0.000 g/cm3
Volume (V) : 0.001 cm3
Cycle Definition : Charge/Discharge alternance
Ei (V)              0.450
vs.                 Ref
ti (h:m:s)          0:00:10.0000
dti (s)             0.0000
dE/dt               5.000
dE/dt unit          mV/s
E1 (V)              0.700
vs.                 Ref
t1 (h:m:s)          0:00:0.0000
dt1 (s)             0.1000
Step percent        50
N                   10
E range min (V)     -1.000
E range max (V)     1.000
I Range             10 mA
I Range min         Unset
I Range max         Unset
I Range init        Unset
Bandwidth           5
E2 (V)              0.450
vs.                 Ref
t2 (h:m:s)          0:00:0.0000
dt2 (s)             0.1000
nc cycles           14
nr                  1
Reverse Scan        0
Ef (V)              0.000
vs.                 Eoc
tf (h:m:s)          0:00:0.0000
dtf (s)             0.1000

mode	ox/red	error	control changes	Ns changes	counter inc.	time/s	control/V	Ewe/V	<I>/mA	cycle number	(Q-Qo)/C	I Range	Ns	step time/s	P/W
2	1	0	1	0	0	0.000000000000000E+000	0.44994	0.450252	0.0264126	1	0.0000000E+000	11	0	0.000000000000000E+000	1.18923e-05
2	1	0	0	0	0	12.1572	0.510726	0.510963	0.349893	1	0.00211796	11	0	12.1022	0.000178782
2	1	0	1	0	0	24.3594	0.571738	0.572054	1.83939	1	0.0135925	11	0	24.3044	0.00105223
2	1	0	0	0	0	36.5616	0.632749	0.633028	4.89556	1	0.0535443	11	0	36.5066	0.00309902
2	1	0	0	0	0	48.764	0.69376	0.694066	8.66735	1	0.135837	11	0	48.709	0.00601571
2	1	0	1	0	0	60.7738	0.646151	0.646411	5.49276	1	0.224616	11	0	60.7188	0.00355058
2	1	0	0	0	0	72.976	0.58514	0.585435	2.13632	1	0.270098	11	0	72.921	0.00125068
2	1	0	0	0	0	85.1784	0.524129	0.524415	0.304923	1	0.282976	11	0	85.1234	0.000159906
2	0	0	1	0	0	97.3806	0.463118	0.463408	-0.0376164	1	0.283871	11	0	3.6006	-1.74317e-05
2	1	0	1	0	1	109.456	0.497274	0.497566	0.165969	2	0.284696	11	0	9.3016	8.25802e-05
2	1	0	1	0	1	121.658	0.558285	0.558533	1.12401	2	0.290863	11	0	21.504	0.000627797
2	1	0	0	0	1	133.861	0.619296	0.61961	3.86694	2	0.319806	11	0	33.7062	0.00239599
2	1	0	1	0	1	146.063	0.680308	0.680581	7.54551	2	0.38894	11	0	45.9084	0.00513533
2	1	0	1	0	1	158.063	0.659654	0.659933	6.15101	2	0.481554	11	0	57.9084	0.00405926
2	1	0	0	0	1	170.265	0.598643	0.598935	2.65135	2	0.534458	11	0	70.1106	0.00158799
2	1	0	1	0	1	182.467	0.537631	0.538005	0.488313	2	0.551709	11	0	82.3128	0.000262715
2	0	0	1	0	1	194.67	0.47662	0.476844	-0.0185245	2	0.553524	11	0	1.3004	-8.83331e-06
2	1	0	1	0	0	206.745	0.483771	0.483999	0.108656	3	0.553856	11	0	6.6012	5.25893e-05
2	1	0	0	0	0	218.947	0.544783	0.545085	0.699123	3	0.557572	11	0	18.8034	0.000381081
2	1	0	1	0	0	231.149	0.605794	0.606015	3.03768	3	0.578531	11	0	31.0056	0.00184088
2	1	0	1	0	0	243.352	0.666805	0.667067	6.60801	3	0.636672	11	0	43.208	0.00440799
2	1	0	0	0	0	255.352	0.673156	0.673424	6.94022	3	0.729789	11	0	55.2078	0.00467371
2	1	0	1	0	0	267.554	0.612145	0.612409	3.26782	3	0.791107	11	0	67.4101	0.00200124
2	1	0	1	0	0	279.756	0.551134	0.55135	0.758392	3	0.813966	11	0	79.6124	0.00041814
2	1	0	0	0	0	291.958	0.490122	0.490429	0.0132158	3	0.817252	11	0	91.8146	6.48142e-06
2	1	0	0	0	1	304.034	0.470269	0.470565	0.079011	4	0.817298	11	0	3.9006	3.71798e-05
2	1	0	0	0	1	316.236	0.53128	0.531531	0.427478	4	0.819615	11	0	16.103	0.000227218
2	1	0	1	0	1	328.438	0.592291	0.592655	2.30022	4	0.834221	11	0	28.3052	0.00136323
2	1	0	0	0	1	340.641	0.653303	0.653575	5.65443	4	0.881857	11	0	40.5074	0.0036956
2	1	0	0	0	1	352.641	0.686659	0.686922	7.74119	4	0.970299	11	0	52.5074	0.0053176
2	1	0	1	0	1	364.843	0.625647	0.625953	3.92348	4	1.04074	11	0	64.7096	0.00245592
2	1	0	0	0	1	377.045	0.564636	0.564918	1.11542	4	1.07004	11	0	76.9118	0.00063012
2	1	0	1	0	1	389.247	0.503625	0.503926	0.067948	4	1.0755	11	0	89.1141	3.42407e-05
2	1	0	0	0	0	401.323	0.456766	0.45704	0.061995	5	1.07543	11	0	1.2002	2.83342e-05
2	1	0	1	0	0	413.525	0.517778	0.518058	0.260893	5	1.07696	11	0	13.4024	0.000135158
2	1	0	0	0	0	425.727	0.578789	0.579053	1.67092	5	1.08674	11	0	25.6046	0.000967554
2	1	0	0	0	0	437.93	0.6398	0.640056	4.78581	5	1.12493	11	0	37.807	0.00306319
2	1	0	1	0	0	449.974	0.699936	0.700309	8.61982	5	1.20529	11	0	49.8518	0.00603653
2	1	0	0	0	0	462.132	0.63915	0.639388	4.6652	5	1.2852	11	0	62.009	0.00298287
2	1	0	0	0	0	474.334	0.578139	0.578425	1.5649	5	1.32195	11	0	74.2114	0.000905178
2	1	0	1	0	0	486.536	0.517127	0.51743	0.154789	5	1.33045	11	0	86.4136	8.00925e-05
2	0	0	0	0	0	498.738	0.456116	0.456391	-0.0494235	5	1.33064	11	0	6.201	-2.25564e-05
2	1	0	1	0	1	510.814	0.504275	0.504524	0.16511	6	1.33159	11	0	10.702	8.33017e-05
2	1	0	0	0	1	523.016	0.565286	0.565584	1.15386	6	1.33789	11	0	22.9042	0.000652607
2	1	0	1	0	1	535.218	0.626298	0.626486	3.94955	6	1.36755	11	0	35.1064	0.00247434
2	1	0	1	0	1	547.421	0.687309	0.687552	7.68816	6	1.4381	11	0	47.3087	0.00528601
2	1	0	0	0	1	559.421	0.652652	0.652893	5.42202	6	1.52435	11	0	59.3086	0.00354
2	1	0	1	0	1	571.623	0.591641	0.591937	2.10132	6	1.56927	11	0	71.5108	0.00124385
2	1	0	1	0	1	583.825	0.53063	0.530911	0.292043	6	1.58184	11	0	83.7132	0.000155049
2	0	0	0	0	1	596.027	0.469619	0.469873	-0.0341861	6	1.58269	11	0	3.6007	-1.60631e-05
2	1	0	0	0	0	608.103	0.490773	0.491051	0.113975	7	1.58315	11	0	8.0014	5.59673e-05
2	1	0	1	0	0	620.305	0.551784	0.552034	0.755424	7	1.58713	11	0	20.2036	0.00041702
2	1	0	1	0	0	632.507	0.612795	0.613079	3.1692	7	1.60931	11	0	32.406	0.00194297
2	1	0	0	0	0	644.71	0.673806	0.674062	6.78803	7	1.66939	11	0	44.6082	0.00457555
2	1	0	1	0	0	656.709	0.666155	0.666428	6.24597	7	1.75905	11	0	56.608	0.00416248
2	1	0	1	0	0	668.912	0.605144	0.605449	2.70474	7	1.81271	11	0	68.8104	0.00163758
2	1	0	0	0	0	681.114	0.544132	0.544429	0.5069	7	1.83037	11	0	81.0126	0.000275971
2	0	0	1	0	0	693.316	0.483121	0.483387	-0.0150878	7	1.83229	11	0	1.0002	-7.29325e-06
2	1	0	0	0	1	705.392	0.47727	0.477573	0.0853066	8	1.8324	11	0	5.301	4.07401e-05
2	1	0	1	0	1	717.594	0.538281	0.538551	0.470466	8	1.83494	11	0	17.5032	0.00025337
2	1	0	0	0	1	729.796	0.599293	0.599585	2.46394	8	1.85082	11	0	29.7054	0.00147734
2	1	0	1	0	1	741.998	0.660304	0.660557	5.87758	8	1.90088	11	0	41.9077	0.00388247
2	1	0	1	0	1	753.998	0.679658	0.679869	7.05942	8	1.98922	11	0	53.9076	0.00479948
2	1	0	0	0	1	766.201	0.618646	0.618961	3.37637	8	2.05208	11	0	66.1098	0.00208984
2	1	0	1	0	1	778.403	0.557635	0.557904	0.803489	8	2.07589	11	0	78.3121	0.00044827
2	1	0	1	0	1	790.605	0.496624	0.496892	0.0242222	8	2.07946	11	0	90.5144	1.20358e-05
2	1	0	1	0	0	802.681	0.463768	0.46404	0.0664693	9	2.07937	11	0	2.6004	3.08444e-05
2	1	0	0	0	0	814.883	0.524779	0.525085	0.291025	9	2.08105	11	0	14.8026	0.000152813
2	1	0	0	0	0	827.085	0.58579	0.586116	1.83195	9	2.09195	11	0	27.005	0.00107374
2	1	0	1	0	0	839.287	0.646801	0.647017	5.01765	9	2.13264	11	0	39.2072	0.00324651
2	1	0	1	0	0	851.287	0.69316	0.693389	7.90301	9	2.21481	11	0	51.2071	0.00547986
2	1	0	0	0	0	863.49	0.632149	0.632375	4.06702	9	2.28717	11	0	63.4094	0.00257188
2	1	0	1	0	0	875.692	0.571137	0.571356	1.19441	9	2.31794	11	0	75.6116	0.00068243
2	1	0	0	0	0	887.894	0.510126	0.510381	0.0846695	9	2.32393	11	0	87.8138	4.32136e-05
2	0	0	1	0	1	899.97	0.450265	0.450592	-0.0166656	10	2.32381	11	0	7.8748	-7.50939e-06
2	1	0	0	0	1	912.172	0.511276	0.511492	0.183579	10	2.325	11	0	12.1022	9.38992e-05
2	1	0	1	0	1	924.374	0.572288	0.572615	1.29476	10	2.33217	11	0	24.3044	0.000741402
2	1	0	1	0	1	936.576	0.633299	0.633532	4.20482	10	2.36429	11	0	36.5067	0.00266389
2	1	0	0	0	1	948.779	0.69431	0.694621	8.02827	10	2.43829	11	0	48.709	0.00557661
2	1	0	1	0	1	960.778	0.645651	0.645931	4.85	10	2.51898	11	0	60.7088	0.00313276
2	1	0	1	0	1	972.981	0.58464	0.584917	1.69417	10	2.55776	11	0	72.9111	0.00099095
2	1	0	0	0	1	985.183	0.523629	0.523884	0.181653	10	2.56717	11	0	85.1134	9.5165e-05
2	0	0	1	0	1	997.385	0.462617	0.462959	-0.0433725	10	2.5675	11	0	5.401	-2.00797e-05
2	1	0	1	0	0	1009.46	0.497774	0.498044	0.126415	11	2.56814	11	0	9.4016	6.29603e-05
2	1	0	1	0	0	1021.66	0.558785	0.559087	0.864397	11	2.57273	11	0	21.604	0.000483273
2	1	0	0	0	0	1033.87	0.619796	0.620078	3.4208	11	2.59717	11	0	33.8062	0.00212116
2	1	0	1	0	0	1046.07	0.680808	0.681097	7.07955	11	2.66064	11	0	46.0084	0.00482186
2	1	0	1	0	0	1058.07	0.659154	0.659424	5.64211	11	2.74702	11	0	58.0084	0.00372054
2	1	0	0	0	0	1070.27	0.598142	0.598451	2.25301	11	2.79421	11	0	70.2106	0.00134831
2	1	0	1	0	0	1082.47	0.537131	0.537394	0.340832	11	2.80803	11	0	82.4128	0.000183161
2	0	0	1	0	0	1094.67	0.47612	0.476389	-0.0271149	11	2.80913	11	0	2.7006	-1.29172e-05
2	1	0	1	0	1	1106.75	0.484271	0.484529	0.0932639	12	2.80939	11	0	6.7012	4.51891e-05
2	1	0	0	0	1	1118.95	0.545283	0.545573	0.551133	12	2.81231	11	0	18.9034	0.000300683
2	1	0	1	0	1	1131.15	0.606294	0.606532	2.69926	12	2.83018	11	0	31.1057	0.00163719
2	1	0	1	0	1	1143.36	0.667305	0.667532	6.20763	12	2.88369	11	0	43.308	0.00414379
2	1	0	0	0	1	1155.36	0.672656	0.672939	6.48457	12	2.97144	11	0	55.3078	0.00436372
2	1	0	0	0	1	1167.56	0.611645	0.611926	2.88381	12	3.02779	11	0	67.5102	0.00176468
2	1	0	1	0	1	1179.76	0.550634	0.550899	0.582393	12	3.04712	11	0	79.7124	0.00032084
2	0	0	0	0	1	1191.96	0.489622	0.489904	-0.00576198	12	3.04944	11	0	0.1	-2.82282e-06
2	1	0	0	0	0	1204.04	0.470769	0.47105	0.0738258	13	3.04942	11	0	4.0006	3.47756e-05
2	1	0	0	0	0	1216.24	0.53178	0.532085	0.343109	13	3.05134	11	0	16.203	0.000182563
2	1	0	1	0	0	1228.44	0.592791	0.593098	2.04355	13	3.06383	11	0	28.4052	0.00121203
2	1	0	0	0	0	1240.65	0.653803	0.654095	5.34574	13	3.10786	11	0	40.6074	0.00349662
2	1	0	0	0	0	1252.65	0.686159	0.686431	7.34499	13	3.19225	11	0	52.6074	0.00504183
2	1	0	1	0	0	1264.85	0.625147	0.625394	3.59016	13	3.2581	11	0	64.8096	0.00224526
2	1	0	0	0	0	1277.05	0.564136	0.564439	0.914836	13	3.28395	11	0	77.0118	0.000516369
2	1	0	0	0	0	1289.25	0.503125	0.50343	0.0361106	13	3.28818	11	0	89.2142	1.81792e-05
2	1	0	0	0	1	1301.33	0.457266	0.457586	0.0584281	14	3.28802	11	0	1.3002	2.67359e-05
2	1	0	1	0	1	1313.53	0.518278	0.518563	0.216677	14	3.28935	11	0	13.5024	0.000112361
2	1	0	1	0	1	1325.73	0.579289	0.579605	1.47889	14	3.29772	11	0	25.7047	0.000857175
2	1	0	0	0	1	1337.93	0.6403	0.640489	4.50327	14	3.33295	11	0	37.907	0.00288429
2	1	0	1	0	1	1349.93	0.699661	0.699951	8.25492	14	3.40924	11	0	49.9068	0.00577803
2	1	0	1	0	1	1362.14	0.63865	0.638888	4.32883	14	3.48526	11	0	62.1091	0.00276563
2	1	0	0	0	1	1374.34	0.577639	0.577957	1.34227	14	3.51845	11	0	74.3114	0.000775773
2	1	0	1	0	1	1386.54	0.516627	0.516904	0.109039	14	3.52542	11	0	86.5136	5.63625e-05
2	0	0	0	0	1	1398.74	0.455616	0.455892	-0.0466673	14	3.52543	11	0	7.0012	-2.12752e-05
2	1	0	1	0	0	1410.82	0.504775	0.505067	0.142686	15	3.52629	11	0	10.802	7.20658e-05
2	1	0	0	0	0	1423.02	0.565786	0.566034	1.00901	15	3.5317	11	0	23.0042	0.000571133
2	1	0	1	0	0	1435.22	0.626798	0.627099	3.70838	15	3.55889	11	0	35.2064	0.00232552
2	1	0	1	0	0	1447.43	0.687809	0.688098	7.41702	15	3.62628	11	0	47.4088	0.00510364
2	1	0	0	0	0	1459.43	0.652152	0.652389	5.11226	15	3.70881	11	0	59.4086	0.00333518
2	1	0	1	0	0	1471.63	0.591141	0.591407	1.8608	15	3.75021	11	0	71.6108	0.00110049
2	1	0	1	0	0	1483.83	0.53013	0.530388	0.228944	15	3.76091	11	0	83.8132	0.000121429
2	0	0	0	0	0	1496.03	0.469119	0.46938	-0.0353623	15	3.76147	11	0	4.4008	-1.65984e-05
2	0	0	1	0	0	1499.85	0.44999	0.450176	-0.0566339	15	3.76129	11	0	8.2196	-2.54952e-05