File: ACS_Catal_2026/Figures_Na_K/main_figures/data/EC/20240126_2-102_Add_Na/20240125_2-102_002_preconditioning_elctrode2_01_CVA_C02.mpt
EC-Lab ASCII FILE
Nb header lines : 66

Cyclic Voltammetry Advanced

Run on channel : 2 (SN 66414)
User :
CE vs. WE compliance from -10 V to 10 V
Electrode connection : standard
Potential control : Ewe
Ewe ctrl range : min = -1.00 V, max = 1.00 V
Safety Limits :
	Do not start on E overload
Acquisition started on : 01/26/2024 15:49:20.433
Loaded Setting File :  C:\Users\NakamuraT\Documents\EC-Lab\Data\Yatsuzuka\20240126_2-102_Add_Na\20240125_2-102_001_preconditioning_elctrode1.mps
Saved on :
	File : 20240125_2-102_002_preconditioning_elctrode2_01_CVA_C02.mpr
	Directory : C:\Users\NakamuraT\Documents\EC-Lab\Data\Yatsuzuka\20240126_2-102_Add_Na\
	Host : 192.109.209.100
Device : SP-150e (SN .003411)
Address : 192.109.209.236
EC-Lab for windows v11.50 (software)
Internet server v11.50 (firmware)
Command interpretor v11.50 (firmware)
Electrode material :
Initial state :
Electrolyte :
Comments :
Electrode surface area : 0.001 cm2
Characteristic mass : 0.001 g
Equivalent Weight : 0.000 g/eq.
Density : 0.000 g/cm3
Volume (V) : 0.001 cm3
Cycle Definition : Charge/Discharge alternance
Ei (V)              0.350
vs.                 Ref
ti (h:m:s)          0:00:10.0000
dti (s)             1.0000
dE/dt               10.000
dE/dt unit          mV/s
E1 (V)              0.450
vs.                 Ref
t1 (h:m:s)          0:00:0.0000
dt1 (s)             0.1000
Step percent        50
N                   10
E range min (V)     -1.000
E range max (V)     1.000
I Range             Auto
I Range min         Unset
I Range max         Unset
I Range init        Unset
Bandwidth           5
E2 (V)              0.350
vs.                 Ref
t2 (h:m:s)          0:00:0.0000
dt2 (s)             0.1000
nc cycles           9
nr                  1
Reverse Scan        0
Ef (V)              0.000
vs.                 Eoc
tf (h:m:s)          0:00:0.0000
dtf (s)             0.1000

mode	ox/red	error	control changes	Ns changes	counter inc.	time/s	control/V	Ewe/V	<I>/mA	cycle number	(Q-Qo)/C	I Range	Ns	step time/s	P/W
2	1	0	1	0	0	0.000000000000000E+000	0.349998	0.350103	8.0369	1	0.0000000E+000	10	0	0.000000000000000E+000	0.00281374
2	1	0	1	0	0	11.1775	0.361725	0.362056	0.266673	1	0.00613292	12	0	10.1775	9.65504e-05
2	1	0	1	0	0	12.8777	0.378727	0.379069	0.270358	1	0.0065852	12	0	11.8777	0.000102484
2	1	0	1	0	0	14.5779	0.395729	0.396139	0.2683	1	0.00703936	12	0	13.5779	0.000106284
2	1	0	1	0	0	16.2783	0.412731	0.413052	0.264528	1	0.00749191	12	0	15.2783	0.000109264
2	1	0	1	0	0	17.9785	0.429733	0.430074	0.261489	1	0.0079421	12	0	16.9785	0.000112459
2	1	0	1	0	0	19.6787	0.446736	0.44709	0.261973	1	0.00839258	12	0	18.6787	0.000117125
2	0	0	1	0	0	21.3153	0.436884	0.437214	-0.0522712	1	0.00849896	13	0	0.7002	-2.28537e-05
2	0	0	1	0	0	23.0155	0.419882	0.420157	-0.0949794	1	0.00837452	13	0	2.4004	-3.99062e-05
2	0	0	1	0	0	24.7457	0.40258	0.402888	-0.119149	1	0.00818935	12	0	4.1306	-4.80035e-05
2	0	0	1	0	0	26.4459	0.385578	0.385922	-0.142154	1	0.00796922	12	0	5.8308	-5.48603e-05
2	0	0	1	0	0	28.1461	0.368576	0.368785	-0.161769	1	0.00771621	12	0	7.531	-5.96581e-05
2	0	0	1	0	0	29.8463	0.351573	0.351854	-0.179551	1	0.00743133	12	0	9.2312	-6.31757e-05
2	1	0	1	0	1	31.4791	0.364775	0.365032	0.190904	2	0.0075989	12	0	1.25	6.96858e-05
2	1	0	1	0	1	33.1795	0.381777	0.382055	0.19204	2	0.0079269	12	0	2.9504	7.33697e-05
2	1	0	1	0	1	34.8797	0.398779	0.3991	0.189554	2	0.00824778	12	0	4.6506	7.56512e-05
2	1	0	1	0	1	36.5799	0.415782	0.416137	0.187206	2	0.00856236	12	0	6.3508	7.79035e-05
2	1	0	1	0	1	38.2801	0.432784	0.433202	0.187174	2	0.00887635	12	0	8.051	8.1084e-05
2	1	0	1	0	1	39.9778	0.449761	0.450126	0.193708	2	0.00919872	12	0	9.7487	8.7193e-05
2	0	0	1	0	1	41.6269	0.433734	0.434115	-0.0939917	2	0.00912307	13	0	1.3452	-4.08032e-05
2	0	0	1	0	1	43.3421	0.416582	0.416883	-0.114773	2	0.00893861	12	0	3.0604	-4.7847e-05
2	0	0	1	0	1	45.0423	0.39958	0.399892	-0.133383	2	0.00872233	12	0	4.7606	-5.33388e-05
2	0	0	1	0	1	46.7425	0.382577	0.382862	-0.152453	2	0.00847894	12	0	6.4608	-5.83684e-05
2	0	0	1	0	1	48.4427	0.365575	0.365847	-0.171143	2	0.00820905	12	0	8.161	-6.2612e-05
2	0	0	1	0	0	50.0757	0.350773	0.351034	-0.0811775	3	0.0079282	12	0	9.794	-2.8496e-05
2	1	0	1	0	0	51.7759	0.367775	0.367969	0.181758	3	0.00817494	12	0	1.5502	6.68812e-05
2	1	0	1	0	0	53.4761	0.384778	0.385064	0.181683	3	0.00848235	12	0	3.2504	6.99594e-05
2	1	0	1	0	0	55.1763	0.40178	0.402067	0.175926	3	0.00877987	12	0	4.9506	7.0734e-05
2	1	0	1	0	0	56.8765	0.418782	0.419069	0.170266	3	0.00906968	12	0	6.6508	7.1353e-05
2	1	0	1	0	0	58.5767	0.435784	0.436074	0.167384	3	0.00935703	12	0	8.351	7.29917e-05
2	1	0	1	0	0	60.1783	0.448186	0.448506	0.010183	3	0.00961443	12	0	9.9526	4.56713e-06
2	0	0	1	0	0	61.9385	0.430584	0.43095	-0.105187	3	0.0094655	12	0	1.7102	-4.53302e-05
2	0	0	1	0	0	63.6387	0.413581	0.413919	-0.125952	3	0.00926468	12	0	3.4104	-5.21339e-05
2	0	0	1	0	0	65.3389	0.396579	0.396869	-0.143564	3	0.00903677	12	0	5.1106	-5.69761e-05
2	0	0	1	0	0	67.0393	0.379577	0.37984	-0.159502	3	0.0087848	12	0	6.811	-6.05851e-05
2	0	0	1	0	0	68.7395	0.362575	0.362931	-0.173543	3	0.00850771	12	0	8.5112	-6.29841e-05
2	1	0	1	0	1	70.3723	0.353774	0.354099	0.103894	4	0.00828622	12	0	0.15	3.67887e-05
2	1	0	1	0	1	72.0725	0.370776	0.371085	0.180106	4	0.00856906	12	0	1.8502	6.68346e-05
2	1	0	1	0	1	73.7727	0.387778	0.388127	0.173968	4	0.00886508	12	0	3.5504	6.75215e-05
2	1	0	1	0	1	75.4729	0.40478	0.405105	0.164207	4	0.00915057	12	0	5.2506	6.65212e-05
2	1	0	1	0	1	77.1731	0.421782	0.422038	0.157395	4	0.0094279	12	0	6.9508	6.64266e-05
2	1	0	1	0	1	78.8733	0.438785	0.439111	0.158308	4	0.00970222	12	0	8.651	6.95147e-05
2	0	0	1	0	1	80.5049	0.444885	0.445167	-0.0768894	4	0.00988067	13	0	0.28	-3.42287e-05
2	0	0	1	0	1	82.2351	0.427583	0.427854	-0.118068	4	0.00970331	12	0	2.0102	-5.05157e-05
2	0	0	1	0	1	83.9355	0.410581	0.410874	-0.135114	4	0.00949305	12	0	3.7106	-5.5515e-05
2	0	0	1	0	1	85.6357	0.393579	0.3939	-0.145912	4	0.00925866	12	0	5.4108	-5.74748e-05
2	0	0	1	0	1	87.3359	0.376577	0.376836	-0.155596	4	0.00900133	12	0	7.111	-5.86341e-05
2	0	0	1	0	1	89.0361	0.359574	0.359903	-0.169261	4	0.00871939	12	0	8.8112	-6.09177e-05
2	1	0	1	0	0	90.6689	0.356774	0.357067	0.15354	5	0.00858955	12	0	0.45	5.48241e-05
2	1	0	1	0	0	92.3691	0.373776	0.374229	0.170088	5	0.00887976	12	0	2.1502	6.36518e-05
2	1	0	1	0	0	94.0693	0.390778	0.391119	0.162098	5	0.00916803	12	0	3.8504	6.33997e-05
2	1	0	1	0	0	95.7695	0.407781	0.40814	0.15872	5	0.00944516	12	0	5.5506	6.47799e-05
2	1	0	1	0	0	97.4697	0.424783	0.425033	0.159236	5	0.009714	12	0	7.2508	6.76805e-05
2	1	0	1	0	0	99.1699	0.441785	0.442119	0.160129	5	0.00997979	12	0	8.951	7.0796e-05
2	0	0	1	0	0	100.772	0.442185	0.442527	-0.0936304	5	0.010078	12	0	0.5501	-4.1434e-05
2	0	0	1	0	0	102.472	0.425183	0.425443	-0.115315	5	0.00989166	12	0	2.2504	-4.90598e-05
2	0	0	1	0	0	104.172	0.408181	0.408459	-0.131118	5	0.00967544	12	0	3.9506	-5.35563e-05
2	0	0	1	0	0	105.872	0.391178	0.391407	-0.148304	5	0.00943681	12	0	5.6508	-5.80474e-05
2	0	0	1	0	0	107.572	0.374176	0.374455	-0.163693	5	0.0091761	12	0	7.351	-6.12956e-05
2	0	0	1	0	0	109.273	0.357174	0.357473	-0.175908	5	0.00889108	12	0	9.0512	-6.28825e-05
2	1	0	1	0	1	110.915	0.359274	0.359546	0.168287	6	0.00884266	12	0	0.7	6.0507e-05
2	1	0	1	0	1	112.616	0.376277	0.376578	0.171676	6	0.009132	12	0	2.4002	6.46495e-05
2	1	0	1	0	1	114.316	0.393279	0.393586	0.161015	6	0.0094144	12	0	4.1004	6.33734e-05
2	1	0	1	0	1	116.016	0.410281	0.410619	0.15304	6	0.00968556	12	0	5.8006	6.28411e-05
2	1	0	1	0	1	117.716	0.427283	0.42764	0.150732	6	0.00994848	12	0	7.501	6.4459e-05
2	1	0	1	0	1	119.417	0.444285	0.444662	0.154556	6	0.0102086	12	0	9.2012	6.87251e-05
2	0	0	1	0	1	121.018	0.439685	0.440022	-0.105182	6	0.0102376	12	0	0.8502	-4.62823e-05
2	0	0	1	0	1	122.718	0.422683	0.423026	-0.126359	6	0.0100433	12	0	2.5504	-5.34533e-05
2	0	0	1	0	1	124.419	0.40568	0.405986	-0.139368	6	0.00982272	12	0	4.2506	-5.65815e-05
2	0	0	1	0	1	126.119	0.388678	0.38897	-0.150093	6	0.0095807	12	0	5.9508	-5.83817e-05
2	0	0	1	0	1	127.819	0.371676	0.371927	-0.162137	6	0.0093167	12	0	7.651	-6.03031e-05
2	0	0	1	0	1	129.519	0.354674	0.355035	-0.176148	6	0.00902818	12	0	9.3512	-6.25387e-05
2	1	0	1	0	0	131.162	0.361775	0.362037	0.171828	7	0.00906498	12	0	0.95	6.22079e-05
2	1	0	1	0	0	132.862	0.378777	0.379052	0.170928	7	0.0093518	12	0	2.6502	6.47905e-05
2	1	0	1	0	0	134.563	0.39578	0.39606	0.163496	7	0.00962909	12	0	4.3505	6.47543e-05
2	1	0	1	0	0	136.263	0.412781	0.413092	0.156035	7	0.00989513	12	0	6.0508	6.4457e-05
2	1	0	1	0	0	137.963	0.429783	0.430123	0.150924	7	0.0101532	12	0	7.751	6.4916e-05
2	1	0	1	0	0	139.663	0.446786	0.447069	0.149698	7	0.0104089	12	0	9.4512	6.69251e-05
2	0	0	1	0	0	141.265	0.437184	0.43752	-0.105398	7	0.0103698	12	0	1.1002	-4.61137e-05
2	0	0	1	0	0	142.965	0.420182	0.420424	-0.121846	7	0.0101694	12	0	2.8004	-5.12269e-05
2	0	0	1	0	0	144.665	0.40318	0.403499	-0.134693	7	0.00994512	12	0	4.5006	-5.43484e-05
2	0	0	1	0	0	146.365	0.386178	0.386488	-0.148426	7	0.00970015	12	0	6.2008	-5.73649e-05
2	0	0	1	0	0	148.066	0.369176	0.369478	-0.164146	7	0.00943329	12	0	7.901	-6.06483e-05
2	0	0	1	0	0	149.766	0.352173	0.352455	-0.182023	7	0.00914184	12	0	9.6012	-6.41551e-05
2	1	0	1	0	1	151.409	0.364275	0.36463	0.164415	8	0.00926449	12	0	1.2	5.99506e-05
2	1	0	1	0	1	153.109	0.381277	0.381593	0.162757	8	0.00954813	12	0	2.9004	6.21069e-05
2	1	0	1	0	1	154.809	0.398279	0.398599	0.158944	8	0.00982086	12	0	4.6006	6.3355e-05
2	1	0	1	0	1	156.509	0.415282	0.415564	0.155087	8	0.0100826	12	0	6.3008	6.44487e-05
2	1	0	1	0	1	158.21	0.432284	0.43258	0.150427	8	0.0103367	12	0	8.001	6.50718e-05
2	1	0	1	0	1	159.91	0.449286	0.449587	0.14833	8	0.010589	12	0	9.7012	6.66872e-05
2	0	0	1	0	1	161.511	0.434684	0.43495	-0.10901	8	0.0104824	12	0	1.3502	-4.74141e-05
2	0	0	1	0	1	163.212	0.417682	0.417962	-0.125028	8	0.0102772	12	0	3.0504	-5.22569e-05
2	0	0	1	0	1	164.912	0.40068	0.400963	-0.141138	8	0.0100499	12	0	4.7506	-5.65912e-05
2	0	0	1	0	1	166.612	0.383678	0.383953	-0.155967	8	0.0098023	12	0	6.4508	-5.98841e-05
2	0	0	1	0	1	168.312	0.366675	0.367003	-0.16743	8	0.00953281	12	0	8.151	-6.14471e-05
2	0	0	0	0	0	169.978	0.349998	0.35058	-0.190315	8	0.00924467	12	0	9.8167	-6.67207e-05
2	1	0	1	0	0	171.655	0.366775	0.367113	0.169758	9	0.00944712	12	0	1.4502	6.23203e-05
2	1	0	1	0	0	173.356	0.383778	0.384095	0.162075	9	0.00972758	12	0	3.1504	6.22521e-05
2	1	0	1	0	0	175.056	0.40078	0.401133	0.153463	9	0.00999648	12	0	4.8506	6.15591e-05
2	1	0	1	0	0	176.756	0.417782	0.418136	0.147313	9	0.0102546	12	0	6.5508	6.1597e-05
2	1	0	1	0	0	178.456	0.434784	0.435156	0.144629	9	0.0105056	12	0	8.251	6.29362e-05
2	1	0	1	0	0	180.058	0.449186	0.449439	0.0497407	9	0.0107357	12	0	9.8526	2.23554e-05
2	0	0	1	0	0	181.758	0.432184	0.432482	-0.114804	9	0.0105814	12	0	1.6002	-4.96504e-05
2	0	0	1	0	0	183.458	0.415182	0.415483	-0.12912	9	0.0103723	12	0	3.3004	-5.36471e-05
2	0	0	1	0	0	185.158	0.398179	0.398513	-0.141291	9	0.010142	12	0	5.0006	-5.63065e-05
2	0	0	1	0	0	186.859	0.381177	0.381412	-0.15398	9	0.00989157	12	0	6.7008	-5.87299e-05
2	0	0	1	0	0	188.559	0.364175	0.364531	-0.168047	9	0.00961905	12	0	8.4012	-6.12585e-05
2	1	0	1	0	1	190.202	0.352273	0.352483	0.0434734	10	0.00936261	12	0	0.000000000000000E+000	1.53237e-05
2	1	0	1	0	1	191.902	0.369276	0.369529	0.168787	10	0.00961616	12	0	1.7002	6.23718e-05
2	1	0	1	0	1	193.602	0.386278	0.386602	0.162941	10	0.0098934	12	0	3.4004	6.29933e-05
2	1	0	1	0	1	195.302	0.40328	0.403587	0.156923	10	0.0101587	12	0	5.1006	6.33319e-05
2	1	0	1	0	1	197.003	0.420282	0.42054	0.151223	10	0.0104135	12	0	6.8008	6.35953e-05
2	1	0	1	0	1	198.703	0.437284	0.437581	0.146599	10	0.0106616	12	0	8.501	6.41491e-05
2	0	0	1	0	1	200.304	0.446686	0.446971	-0.063117	10	0.0108472	12	0	0.15	-2.82115e-05
2	0	0	1	0	1	202.005	0.429683	0.429964	-0.114529	10	0.0106683	12	0	1.8502	-4.92434e-05
2	0	0	1	0	1	203.705	0.412681	0.412981	-0.128797	10	0.0104557	12	0	3.5504	-5.31909e-05
2	0	0	1	0	1	205.405	0.395679	0.396	-0.143747	10	0.0102228	12	0	5.2508	-5.69239e-05
2	0	0	1	0	1	207.105	0.378677	0.379034	-0.15935	10	0.00996997	12	0	6.951	-6.03991e-05
2	0	0	1	0	1	208.806	0.361675	0.361971	-0.171693	10	0.00969484	12	0	8.6512	-6.2148e-05
2	0	0	1	0	1	209.971	0.349998	0.350389	-0.188561	10	0.00949153	12	0	9.8163	-6.60698e-05