File: ACS_Catal_2026/Figures_Na_K/main_figures/data/EC/20240126_2-102_Add_Na/20240201_2-102_014_preconditioning_elctrode6_01_CVA_C02.mpt
EC-Lab ASCII FILE
Nb header lines : 66

Cyclic Voltammetry Advanced

Run on channel : 2 (SN 66414)
User :
CE vs. WE compliance from -10 V to 10 V
Electrode connection : standard
Potential control : Ewe
Ewe ctrl range : min = -1.00 V, max = 1.00 V
Safety Limits :
	Do not start on E overload
Acquisition started on : 02/01/2024 14:41:57.621
Loaded Setting File :  C:\Users\NakamuraT\Documents\EC-Lab\Data\Yatsuzuka\20240126_2-102_Add_Na\20240125_2-102_001_preconditioning_elctrode1.mps
Saved on :
	File : 20240201_2-102_014_preconditioning_elctrode6_01_CVA_C02.mpr
	Directory : C:\Users\NakamuraT\Documents\EC-Lab\Data\Yatsuzuka\20240126_2-102_Add_Na\
	Host : 192.109.209.100
Device : SP-150e (SN .003411)
Address : 192.109.209.236
EC-Lab for windows v11.50 (software)
Internet server v11.50 (firmware)
Command interpretor v11.50 (firmware)
Electrode material :
Initial state :
Electrolyte :
Comments :
Electrode surface area : 0.001 cm2
Characteristic mass : 0.001 g
Equivalent Weight : 0.000 g/eq.
Density : 0.000 g/cm3
Volume (V) : 0.001 cm3
Cycle Definition : Charge/Discharge alternance
Ei (V)              0.350
vs.                 Ref
ti (h:m:s)          0:00:10.0000
dti (s)             1.0000
dE/dt               10.000
dE/dt unit          mV/s
E1 (V)              0.450
vs.                 Ref
t1 (h:m:s)          0:00:0.0000
dt1 (s)             0.1000
Step percent        50
N                   10
E range min (V)     -1.000
E range max (V)     1.000
I Range             Auto
I Range min         Unset
I Range max         Unset
I Range init        Unset
Bandwidth           5
E2 (V)              0.350
vs.                 Ref
t2 (h:m:s)          0:00:0.0000
dt2 (s)             0.1000
nc cycles           9
nr                  1
Reverse Scan        0
Ef (V)              0.000
vs.                 Eoc
tf (h:m:s)          0:00:0.0000
dtf (s)             0.1000

mode	ox/red	error	control changes	Ns changes	counter inc.	time/s	control/V	Ewe/V	<I>/mA	cycle number	(Q-Qo)/C	I Range	Ns	step time/s	P/W
2	1	0	1	0	0	0.000000000000000E+000	0.349999	0.350116	12.5633	1	0.0000000E+000	10	0	0.000000000000000E+000	0.00439863
2	1	0	1	0	0	11.1825	0.361776	0.362018	0.431913	1	0.0144381	12	0	10.1825	0.00015636
2	1	0	1	0	0	12.8829	0.378778	0.379029	0.460817	1	0.0152114	12	0	11.8829	0.000174663
2	1	0	1	0	0	14.5831	0.39578	0.395995	0.455398	1	0.0159888	12	0	13.5831	0.000180335
2	1	0	1	0	0	16.2833	0.412783	0.413059	0.4408	1	0.0167523	12	0	15.2833	0.000182076
2	1	0	1	0	0	17.9835	0.429785	0.430083	0.433482	1	0.0174962	12	0	16.9835	0.000186433
2	1	0	1	0	0	19.6837	0.446788	0.447071	0.420257	1	0.0182193	12	0	18.6837	0.000187885
2	0	0	1	0	0	21.3303	0.436736	0.437015	-0.0999963	1	0.0183957	13	0	0.665	-4.36999e-05
2	0	0	1	0	0	23.0457	0.419584	0.419838	-0.181186	1	0.0181435	12	0	2.3804	-7.60688e-05
2	0	0	1	0	0	24.7459	0.402581	0.402857	-0.225437	1	0.0177977	12	0	4.0806	-9.0819e-05
2	0	0	1	0	0	26.4461	0.385579	0.385821	-0.259065	1	0.0173841	12	0	5.7808	-9.99526e-05
2	0	0	1	0	0	28.1463	0.368577	0.368807	-0.298953	1	0.0169095	12	0	7.481	-0.000110256
2	0	0	1	0	0	29.8465	0.351574	0.351827	-0.329432	1	0.0163765	12	0	9.1812	-0.000115903
2	1	0	1	0	1	31.4795	0.364776	0.36499	0.324024	2	0.0165442	12	0	1.1502	0.000118265
2	1	0	1	0	1	33.1797	0.381779	0.381991	0.337151	2	0.01712	12	0	2.8504	0.000128789
2	1	0	1	0	1	34.8799	0.398781	0.398988	0.330195	2	0.0176887	12	0	4.5506	0.000131744
2	1	0	1	0	1	36.5801	0.415783	0.416075	0.317159	2	0.0182367	12	0	6.2508	0.000131962
2	1	0	1	0	1	38.2803	0.432786	0.432995	0.307909	2	0.0187692	12	0	7.951	0.000133323
2	1	0	1	0	1	39.9782	0.449763	0.449996	0.314864	2	0.019296	12	0	9.6489	0.000141688
2	0	0	1	0	1	41.6423	0.433586	0.433851	-0.174118	2	0.0191835	12	0	1.2602	-7.55413e-05
2	0	0	1	0	1	43.3425	0.416583	0.416768	-0.214888	2	0.0188479	12	0	2.9604	-8.95584e-05
2	0	0	1	0	1	45.0427	0.399581	0.399787	-0.250247	2	0.018453	12	0	4.6606	-0.000100046
2	0	0	1	0	1	46.7429	0.382579	0.382842	-0.274833	2	0.0180066	12	0	6.3608	-0.000105218
2	0	0	1	0	1	48.4431	0.365576	0.365866	-0.308906	2	0.0175093	12	0	8.061	-0.000113018
2	0	0	1	0	0	50.0761	0.350774	0.351011	-0.229552	3	0.0169877	12	0	9.694	-8.05754e-05
2	1	0	1	0	0	51.7763	0.367777	0.367991	0.323429	3	0.0173118	12	0	1.4002	0.000119019
2	1	0	1	0	0	53.4765	0.384779	0.38498	0.318672	3	0.0178646	12	0	3.1004	0.000122682
2	1	0	1	0	0	55.1767	0.401781	0.401999	0.308117	3	0.0183987	12	0	4.8006	0.000123863
2	1	0	1	0	0	56.8769	0.418784	0.41905	0.293365	3	0.0189081	12	0	6.5008	0.000122935
2	1	0	1	0	0	58.5773	0.435786	0.436023	0.282854	3	0.0193989	12	0	8.2012	0.000123331
2	1	0	1	0	0	60.1789	0.448188	0.448417	0.0735091	3	0.0198319	12	0	9.8028	3.29627e-05
2	0	0	1	0	0	61.8791	0.431185	0.431405	-0.19256	3	0.0196027	12	0	1.5502	-8.30715e-05
2	0	0	1	0	0	63.5793	0.414183	0.414449	-0.228124	3	0.0192419	12	0	3.2504	-9.4546e-05
2	0	0	1	0	0	65.2795	0.397181	0.397497	-0.256538	3	0.0188312	12	0	4.9506	-0.000101973
2	0	0	1	0	0	66.9797	0.380178	0.380436	-0.28068	3	0.0183736	12	0	6.6508	-0.000106781
2	0	0	1	0	0	68.6801	0.363176	0.363355	-0.315178	3	0.0178677	12	0	8.3512	-0.000114522
2	0	0	1	0	1	70.3229	0.353274	0.353468	0.0163811	4	0.0173969	12	0	9.994	5.79019e-06
2	1	0	1	0	1	72.0231	0.370277	0.370424	0.315403	4	0.0178173	12	0	1.6502	0.000116833
2	1	0	1	0	1	73.7233	0.387279	0.38753	0.312721	4	0.0183561	12	0	3.3504	0.000121189
2	1	0	1	0	1	75.4235	0.404282	0.404487	0.294594	4	0.018871	12	0	5.0506	0.00011916
2	1	0	1	0	1	77.1239	0.421284	0.421517	0.279707	4	0.0193604	12	0	6.751	0.000117901
2	1	0	1	0	1	78.8241	0.438286	0.438452	0.274255	4	0.0198298	12	0	8.4512	0.000120248
2	0	0	1	0	1	80.4257	0.445687	0.445874	-0.0699428	4	0.0201706	12	0	0.1	-3.11856e-05
2	0	0	1	0	1	82.1259	0.428685	0.428893	-0.207708	4	0.0198804	12	0	1.8002	-8.90846e-05
2	0	0	1	0	1	83.8261	0.411683	0.411942	-0.23168	4	0.0195063	12	0	3.5004	-9.54388e-05
2	0	0	1	0	1	85.5263	0.39468	0.394931	-0.260626	4	0.0190863	12	0	5.2006	-0.000102929
2	0	0	1	0	1	87.2267	0.377678	0.37784	-0.286812	4	0.0186219	12	0	6.901	-0.000108369
2	0	0	1	0	1	88.9269	0.360676	0.36086	-0.31398	4	0.01811	12	0	8.6012	-0.000113303
2	1	0	1	0	0	90.5697	0.355775	0.355984	0.148096	5	0.0177417	12	0	0.2	5.27198e-05
2	1	0	1	0	0	92.2699	0.372777	0.373023	0.316476	5	0.0182142	12	0	1.9002	0.000118053
2	1	0	1	0	0	93.9701	0.38978	0.390032	0.300663	5	0.0187419	12	0	3.6004	0.000117268
2	1	0	1	0	0	95.6704	0.406782	0.407028	0.289089	5	0.0192428	12	0	5.3007	0.000117667
2	1	0	1	0	0	97.3707	0.423784	0.424039	0.269966	5	0.0197178	12	0	7.001	0.000114476
2	1	0	1	0	0	99.0709	0.440787	0.441038	0.266157	5	0.0201732	12	0	8.7012	0.000117385
2	0	0	1	0	0	100.672	0.443187	0.443427	-0.136987	5	0.0204069	12	0	0.35	-6.07438e-05
2	0	0	1	0	0	102.373	0.426185	0.426405	-0.212859	5	0.0200854	12	0	2.0502	-9.07641e-05
2	0	0	1	0	0	104.073	0.409182	0.409396	-0.238315	5	0.0197019	12	0	3.7504	-9.75653e-05
2	0	0	1	0	0	105.773	0.39218	0.392418	-0.262133	5	0.0192752	12	0	5.4508	-0.000102866
2	0	0	1	0	0	107.473	0.375178	0.375395	-0.292288	5	0.0188051	12	0	7.151	-0.000109723
2	0	0	1	0	0	109.174	0.358175	0.358344	-0.315894	5	0.0182879	12	0	8.8512	-0.000113199
2	1	0	1	0	1	110.816	0.358275	0.358496	0.22138	6	0.0180483	12	0	0.45	7.9364e-05
2	1	0	1	0	1	112.517	0.375278	0.375482	0.313987	6	0.0185479	12	0	2.1502	0.000117896
2	1	0	1	0	1	114.217	0.39228	0.392535	0.294266	6	0.0190663	12	0	3.8504	0.00011551
2	1	0	1	0	1	115.917	0.409282	0.409542	0.283188	6	0.0195561	12	0	5.5508	0.000115978
2	1	0	1	0	1	117.617	0.426285	0.426487	0.263225	6	0.0200196	12	0	7.251	0.000112262
2	1	0	1	0	1	119.318	0.443287	0.443542	0.260029	6	0.0204638	12	0	8.9512	0.000115334
2	0	0	1	0	1	120.919	0.440687	0.440867	-0.166779	6	0.020585	12	0	0.65	-7.35273e-05
2	0	0	1	0	1	122.619	0.423684	0.423883	-0.219612	6	0.0202456	12	0	2.3502	-9.30898e-05
2	0	0	1	0	1	124.32	0.406683	0.406927	-0.24023	6	0.0198546	12	0	4.0505	-9.77563e-05
2	0	0	1	0	1	126.02	0.38968	0.389913	-0.269093	6	0.0194219	12	0	5.7508	-0.000104923
2	0	0	1	0	1	127.72	0.372677	0.372915	-0.2911	6	0.0189462	12	0	7.451	-0.000108556
2	0	0	1	0	1	129.42	0.355675	0.355899	-0.324046	6	0.0184235	12	0	9.1512	-0.000115328
2	1	0	1	0	0	131.063	0.360776	0.361022	0.267363	7	0.0183266	12	0	0.7	9.65237e-05
2	1	0	1	0	0	132.763	0.377778	0.378031	0.304775	7	0.0188386	12	0	2.4002	0.000115214
2	1	0	1	0	0	134.464	0.39478	0.395025	0.293933	7	0.0193482	12	0	4.1006	0.000116111
2	1	0	1	0	0	136.164	0.411783	0.412057	0.271677	7	0.0198285	12	0	5.8008	0.000111947
2	1	0	1	0	0	137.864	0.428785	0.429003	0.263279	7	0.0202827	12	0	7.501	0.000112948
2	1	0	1	0	0	139.564	0.445787	0.445998	0.24959	7	0.020718	12	0	9.2012	0.000111317
2	0	0	1	0	0	141.166	0.438186	0.438442	-0.188195	7	0.0207253	12	0	0.9	-8.25126e-05
2	0	0	1	0	0	142.866	0.421184	0.42142	-0.218452	7	0.0203739	12	0	2.6002	-9.206e-05
2	0	0	1	0	0	144.567	0.404182	0.404384	-0.247818	7	0.0199768	12	0	4.3006	-0.000100214
2	0	0	1	0	0	146.267	0.387179	0.387392	-0.26704	7	0.0195393	12	0	6.0008	-0.000103449
2	0	0	1	0	0	147.967	0.370177	0.370377	-0.298398	7	0.019059	12	0	7.701	-0.000110519
2	0	0	1	0	0	149.667	0.353175	0.353385	-0.322519	7	0.0185317	12	0	9.4012	-0.000113973
2	1	0	1	0	1	151.31	0.363276	0.363532	0.285931	8	0.0185864	12	0	1	0.000103945
2	1	0	1	0	1	153.01	0.380278	0.38048	0.303886	8	0.0191028	12	0	2.7004	0.000115622
2	1	0	1	0	1	154.711	0.397281	0.397546	0.285831	8	0.0196042	12	0	4.4006	0.000113631
2	1	0	1	0	1	156.411	0.414283	0.414538	0.269222	8	0.0200757	12	0	6.1008	0.000111603
2	1	0	1	0	1	158.111	0.431285	0.431487	0.255653	8	0.0205215	12	0	7.801	0.000110311
2	1	0	1	0	1	159.811	0.448288	0.448519	0.247885	8	0.020949	12	0	9.5012	0.000111181
2	0	0	1	0	1	161.413	0.435686	0.435986	-0.195096	8	0.0208417	12	0	1.15	-8.5059e-05
2	0	0	1	0	1	163.113	0.418684	0.41895	-0.224993	8	0.0204811	12	0	2.8504	-9.42608e-05
2	0	0	1	0	1	164.813	0.401681	0.401911	-0.248906	8	0.0200782	12	0	4.5506	-0.000100038
2	0	0	1	0	1	166.514	0.384679	0.384857	-0.271842	8	0.0196354	12	0	6.2508	-0.00010462
2	0	0	1	0	1	168.214	0.367677	0.367907	-0.300066	8	0.0191492	12	0	7.951	-0.000110397
2	0	0	1	0	1	169.914	0.350674	0.350806	-0.326934	8	0.0186164	12	0	9.6512	-0.000114691
2	1	0	1	0	0	171.557	0.365776	0.365983	0.294663	9	0.0188261	12	0	1.2502	0.000107841
2	1	0	1	0	0	173.257	0.382779	0.383026	0.301971	9	0.0193419	12	0	2.9504	0.000115663
2	1	0	1	0	0	174.957	0.399781	0.400065	0.278482	9	0.0198354	12	0	4.6506	0.000111411
2	1	0	1	0	0	176.658	0.416783	0.41693	0.267396	9	0.020299	12	0	6.3508	0.000111485
2	1	0	1	0	0	178.358	0.433786	0.434098	0.249357	9	0.0207376	12	0	8.051	0.000108245
2	1	0	0	0	0	179.982	0.449963	0.450249	0.245028	9	0.0211401	12	0	9.6751	0.000110323
2	0	0	1	0	0	181.66	0.433186	0.433347	-0.200271	9	0.0209376	12	0	1.4002	-8.67869e-05
2	0	0	1	0	0	183.36	0.416183	0.416343	-0.230136	9	0.0205698	12	0	3.1004	-9.58158e-05
2	0	0	1	0	0	185.06	0.399181	0.399446	-0.251169	9	0.0201616	12	0	4.8006	-0.000100328
2	0	0	1	0	0	186.76	0.382179	0.382438	-0.2755	9	0.0197135	12	0	6.5008	-0.000105362
2	0	0	1	0	0	188.461	0.365176	0.365368	-0.304349	9	0.0192216	12	0	8.201	-0.000111199
2	0	0	1	0	1	190.104	0.351274	0.351439	-0.158286	10	0.0187131	12	0	9.844	-5.56277e-05
2	1	0	1	0	1	191.804	0.368277	0.368521	0.299639	10	0.019048	12	0	1.5002	0.000110423
2	1	0	1	0	1	193.504	0.385279	0.385522	0.296249	10	0.0195602	12	0	3.2004	0.00011421
2	1	0	1	0	1	195.204	0.402281	0.402491	0.273387	10	0.0200435	12	0	4.9006	0.000110036
2	1	0	1	0	1	196.904	0.419284	0.419512	0.258168	10	0.0204968	12	0	6.6008	0.000108304
2	1	0	1	0	1	198.605	0.436286	0.436512	0.250595	10	0.020931	12	0	8.3012	0.000109388
2	1	0	1	0	1	200.206	0.447688	0.44794	0.0105863	10	0.0212919	12	0	9.9028	4.74205e-06
2	0	0	1	0	1	201.967	0.430085	0.430256	-0.215581	10	0.0210085	12	0	1.7102	-9.27549e-05
2	0	0	1	0	1	203.667	0.413083	0.41332	-0.228521	10	0.0206326	12	0	3.4104	-9.44523e-05
2	0	0	1	0	1	205.367	0.39608	0.396277	-0.254797	10	0.0202226	12	0	5.1106	-0.00010097
2	0	0	1	0	1	207.067	0.379078	0.379303	-0.276909	10	0.0197649	12	0	6.8108	-0.000105032
2	0	0	1	0	1	208.768	0.362076	0.362282	-0.306401	10	0.0192692	12	0	8.5112	-0.000111004
2	0	0	1	0	1	209.973	0.349999	0.35025	-0.336067	10	0.018887	12	0	9.7163	-0.000117707