File: ACS_Catal_2026/Figures_Na_K/main_figures/data/EC/20240126_2-102_Add_Na/20240201_2-102_018_add_Cs_5mL_elctrode6_C02.mpt
EC-Lab ASCII FILE
Nb header lines : 66

Cyclic Voltammetry Advanced

Run on channel : 2 (SN 66414)
User :
CE vs. WE compliance from -10 V to 10 V
Electrode connection : standard
Potential control : Ewe
Ewe ctrl range : min = -1.00 V, max = 1.00 V
Safety Limits :
	Do not start on E overload
Acquisition started on : 02/01/2024 15:19:23.934
Loaded Setting File :  C:\Users\NakamuraT\Documents\EC-Lab\Data\Yatsuzuka\20240126_2-102_Add_Na\20240125_2-102_010_K_elctrode4.mps
Saved on :
	File : 20240201_2-102_018_add_Cs_5mL_elctrode6_C02.mpr
	Directory : C:\Users\NakamuraT\Documents\EC-Lab\Data\Yatsuzuka\20240126_2-102_Add_Na\
	Host : 192.109.209.100
Device : SP-150e (SN .003411)
Address : 192.109.209.236
EC-Lab for windows v11.50 (software)
Internet server v11.50 (firmware)
Command interpretor v11.50 (firmware)
Electrode material :
Initial state :
Electrolyte :
Comments :
Electrode surface area : 0.001 cm2
Characteristic mass : 0.001 g
Equivalent Weight : 0.000 g/eq.
Density : 0.000 g/cm3
Volume (V) : 0.001 cm3
Cycle Definition : Charge/Discharge alternance
Ei (V)              0.450
vs.                 Ref
ti (h:m:s)          0:00:10.0000
dti (s)             0.0000
dE/dt               5.000
dE/dt unit          mV/s
E1 (V)              0.700
vs.                 Ref
t1 (h:m:s)          0:00:0.0000
dt1 (s)             0.1000
Step percent        50
N                   10
E range min (V)     -1.000
E range max (V)     1.000
I Range             10 mA
I Range min         Unset
I Range max         Unset
I Range init        Unset
Bandwidth           5
E2 (V)              0.450
vs.                 Ref
t2 (h:m:s)          0:00:0.0000
dt2 (s)             0.1000
nc cycles           14
nr                  1
Reverse Scan        0
Ef (V)              0.000
vs.                 Eoc
tf (h:m:s)          0:00:0.0000
dtf (s)             0.1000

mode	ox/red	error	control changes	Ns changes	counter inc.	time/s	control/V	Ewe/V	<I>/mA	cycle number	(Q-Qo)/C	I Range	Ns	step time/s	P/W
2	0	0	1	0	0	0.000000000000000E+000	0.449937	0.450417	-0.0110456	1	0.0000000E+000	11	0	0.000000000000000E+000	-4.97514e-06
2	1	0	0	0	0	12.4376	0.512125	0.512393	0.0917471	1	0.00111068	11	0	12.3828	4.70105e-05
2	1	0	1	0	0	24.9203	0.574539	0.574843	0.22814	1	0.00275074	11	0	24.8655	0.000131145
2	1	0	1	0	0	37.4029	0.636952	0.637188	1.45583	1	0.0113107	11	0	37.3481	0.000927637
2	1	0	0	0	0	49.8856	0.699365	0.699616	4.34918	1	0.0463194	11	0	49.8308	0.00304276
2	1	0	1	0	0	62.2457	0.6388	0.639104	1.43522	1	0.0809694	11	0	62.1909	0.000917257
2	1	0	0	0	0	74.7284	0.576386	0.576629	0.106152	1	0.0886071	11	0	74.6736	6.12105e-05
2	0	0	1	0	0	87.2111	0.513973	0.514223	-0.0713871	1	0.0883862	11	0	8.4882	-3.67088e-05
2	0	0	1	0	0	99.6937	0.45156	0.45187	-0.0995671	1	0.0873047	11	0	20.9708	-4.49914e-05
2	1	0	1	0	1	111.949	0.509729	0.510018	0.0870787	2	0.0882594	11	0	11.6838	4.44117e-05
2	1	0	1	0	1	124.432	0.572142	0.572425	0.20483	2	0.0897622	11	0	24.1664	0.00011725
2	1	0	1	0	1	136.914	0.634555	0.634796	1.33502	2	0.0974785	11	0	36.6491	0.000847466
2	1	0	1	0	1	149.397	0.696969	0.697275	4.15984	2	0.130547	11	0	49.1318	0.00290055
2	1	0	1	0	1	161.737	0.641296	0.641505	1.49321	2	0.165984	11	0	61.4719	0.000957904
2	1	0	1	0	1	174.22	0.578883	0.579156	0.120224	2	0.174061	11	0	73.9546	6.96284e-05
2	0	0	0	0	1	186.703	0.516469	0.516677	-0.0695348	2	0.173909	11	0	8.0888	-3.59271e-05
2	0	0	1	0	1	199.185	0.454056	0.454307	-0.0959667	2	0.172842	11	0	20.5714	-4.35983e-05
2	1	0	1	0	0	211.441	0.507232	0.507528	0.0859974	3	0.173696	11	0	11.1845	4.36461e-05
2	1	0	1	0	0	223.923	0.569646	0.569872	0.186603	3	0.175125	11	0	23.6672	0.00010634
2	1	0	1	0	0	236.406	0.632059	0.632366	1.23093	3	0.182144	11	0	36.1498	0.000778399
2	1	0	1	0	0	248.889	0.694472	0.694707	3.98418	3	0.213386	11	0	48.6325	0.00276784
2	1	0	1	0	0	261.229	0.643793	0.644091	1.55218	3	0.249558	11	0	60.9726	0.000999747
2	1	0	1	0	0	273.711	0.581379	0.581622	0.132996	3	0.258077	11	0	73.4553	7.73533e-05
2	0	0	1	0	0	286.194	0.518966	0.519197	-0.0678219	3	0.258	11	0	7.6894	-3.52129e-05
2	0	0	1	0	0	298.677	0.456553	0.456804	-0.0947616	3	0.256948	11	0	20.172	-4.32875e-05
2	1	0	1	0	1	310.932	0.504736	0.505007	0.0845426	4	0.257706	11	0	10.6852	4.26946e-05
2	1	0	1	0	1	323.415	0.567149	0.567407	0.170313	4	0.259073	11	0	23.1678	9.66369e-05
2	1	0	0	0	1	335.897	0.629562	0.629853	1.1354	4	0.265465	11	0	35.6505	0.000715133
2	1	0	1	0	1	348.38	0.691976	0.692256	3.82206	4	0.295025	11	0	48.1332	0.00264585
2	1	0	0	0	1	360.72	0.646289	0.646543	1.63145	4	0.332105	11	0	60.4733	0.0010548
2	1	0	1	0	1	373.203	0.583876	0.584143	0.153592	4	0.341253	11	0	72.956	8.97196e-05
2	0	0	1	0	1	385.685	0.521463	0.521681	-0.0660878	4	0.341265	11	0	7.2898	-3.44767e-05
2	0	0	0	0	1	398.168	0.459049	0.459322	-0.0956806	4	0.34023	11	0	19.7725	-4.39482e-05
2	1	0	0	0	0	410.424	0.502239	0.502518	0.0857183	5	0.340894	11	0	10.1859	4.3075e-05
2	1	0	1	0	0	422.906	0.564653	0.564875	0.158612	5	0.342211	11	0	22.6686	8.9596e-05
2	1	0	1	0	0	435.389	0.627066	0.627305	1.0408	5	0.348046	11	0	35.1512	0.0006529
2	1	0	0	0	0	447.872	0.689479	0.689729	3.65725	5	0.375917	11	0	47.6339	0.00252251
2	1	0	1	0	0	460.212	0.648786	0.649052	1.66937	5	0.413356	11	0	59.974	0.00108351
2	1	0	0	0	0	472.694	0.586372	0.586636	0.168156	5	0.422866	11	0	72.4567	9.86464e-05
2	0	0	1	0	0	485.177	0.523958	0.524252	-0.0662583	5	0.422964	11	0	6.9904	-3.47361e-05
2	0	0	1	0	0	497.66	0.461546	0.461814	-0.0929047	5	0.421943	11	0	19.473	-4.29047e-05
2	1	0	1	0	1	509.915	0.499743	0.499983	0.0835765	6	0.422514	11	0	9.6866	4.17868e-05
2	1	0	1	0	1	522.398	0.562156	0.562411	0.150256	6	0.423785	11	0	22.1692	8.45053e-05
2	1	0	1	0	1	534.88	0.624569	0.624798	0.957695	6	0.429113	11	0	34.6519	0.000598366
2	1	0	1	0	1	547.363	0.686983	0.687221	3.53149	6	0.455552	11	0	47.1346	0.00242691
2	1	0	1	0	1	559.703	0.651282	0.65151	1.79203	6	0.494141	11	0	59.4747	0.00116752
2	1	0	1	0	1	572.186	0.588869	0.589159	0.193066	6	0.504508	11	0	71.9574	0.000113747
2	0	0	1	0	1	584.668	0.526456	0.526731	-0.063254	6	0.504721	11	0	6.3911	-3.33178e-05
2	0	0	1	0	1	597.151	0.464042	0.464271	-0.0922489	6	0.50372	11	0	18.8738	-4.28285e-05
2	1	0	1	0	0	609.407	0.497246	0.497502	0.0835738	7	0.504202	11	0	9.1873	4.15781e-05
2	1	0	0	0	0	621.889	0.559659	0.559939	0.141283	7	0.505437	11	0	21.6699	7.91099e-05
2	1	0	1	0	0	634.372	0.622073	0.62235	0.880651	7	0.510312	11	0	34.1526	0.000548073
2	1	0	1	0	0	646.854	0.684486	0.684741	3.36914	7	0.535231	11	0	46.6352	0.00230699
2	1	0	1	0	0	659.195	0.653779	0.654008	1.89018	7	0.574374	11	0	58.9754	0.00123619
2	1	0	1	0	0	671.677	0.591366	0.591597	0.217878	7	0.585452	11	0	71.458	0.000128896
2	0	0	0	0	0	684.16	0.528952	0.529212	-0.0617533	7	0.585785	11	0	5.9917	-3.26805e-05
2	0	0	1	0	0	696.643	0.466539	0.466786	-0.0918502	7	0.584805	11	0	18.4744	-4.28744e-05
2	1	0	1	0	1	708.898	0.49475	0.49501	0.0859665	8	0.585197	11	0	8.688	4.25543e-05
2	1	0	1	0	1	721.381	0.557163	0.557489	0.130408	8	0.586402	11	0	21.1706	7.2701e-05
2	1	0	0	0	1	733.863	0.619576	0.619858	0.806637	8	0.590855	11	0	33.6533	0.000500001
2	1	0	1	0	1	746.346	0.68199	0.682267	3.22675	8	0.614314	11	0	46.136	0.00220151
2	1	0	0	0	1	758.686	0.656275	0.656531	1.97121	8	0.653823	11	0	58.4761	0.00129416
2	1	0	1	0	1	771.169	0.593862	0.5941	0.244756	8	0.665636	11	0	70.9588	0.00014541
2	0	0	1	0	1	783.651	0.531449	0.531756	-0.0593081	8	0.666091	11	0	5.5922	-3.15374e-05
2	0	0	0	0	1	796.134	0.469035	0.469296	-0.0900665	8	0.665124	11	0	18.0749	-4.22678e-05
2	1	0	1	0	0	808.389	0.492253	0.492525	0.0826755	9	0.665427	11	0	8.1886	4.07198e-05
2	1	0	1	0	0	820.872	0.554666	0.554939	0.123582	9	0.666601	11	0	20.6713	6.85804e-05
2	1	0	1	0	0	833.355	0.61708	0.617374	0.736369	9	0.670668	11	0	33.154	0.000454615
2	1	0	1	0	0	845.837	0.679493	0.679794	3.06757	9	0.692687	11	0	45.6366	0.00208532
2	1	0	1	0	0	858.178	0.658772	0.65902	2.05176	9	0.732351	11	0	57.9768	0.00135215
2	1	0	1	0	0	870.66	0.596359	0.596662	0.271099	9	0.744861	11	0	70.4594	0.000161755
2	0	0	1	0	0	883.143	0.533945	0.534193	-0.0563684	9	0.745449	11	0	5.1928	-3.01116e-05
2	0	0	1	0	0	895.626	0.471532	0.471779	-0.0892079	9	0.744503	11	0	17.6755	-4.20864e-05
2	1	0	1	0	1	907.881	0.489757	0.490037	0.0847106	10	0.744719	11	0	7.6894	4.15113e-05
2	1	0	1	0	1	920.364	0.55217	0.552438	0.119872	10	0.745871	11	0	20.172	6.62218e-05
2	1	0	1	0	1	932.846	0.614583	0.614889	0.673539	10	0.749591	11	0	32.6547	0.000414152
2	1	0	0	0	1	945.329	0.676996	0.677198	2.90214	10	0.770149	11	0	45.1373	0.00196532
2	1	0	1	0	1	957.669	0.661268	0.661555	2.10091	10	0.809608	11	0	57.4775	0.00138987
2	1	0	1	0	1	970.152	0.598854	0.599126	0.293865	10	0.822543	11	0	69.9602	0.000176062
2	0	0	1	0	1	982.634	0.536442	0.536717	-0.0535979	10	0.823253	11	0	4.6935	-2.87669e-05
2	0	0	1	0	1	995.117	0.474028	0.47426	-0.0861136	10	0.822324	11	0	17.1762	-4.08402e-05
2	1	0	1	0	0	1007.37	0.48726	0.487479	0.0821304	11	0.822452	11	0	7.19	4.00368e-05
2	1	0	0	0	0	1019.86	0.549673	0.549959	0.112983	11	0.82358	11	0	19.6727	6.21359e-05
2	1	0	1	0	0	1032.34	0.612087	0.612355	0.612607	11	0.826987	11	0	32.1554	0.000375133
2	1	0	1	0	0	1044.82	0.6745	0.674766	2.77128	11	0.846279	11	0	44.638	0.00186996
2	1	0	1	0	0	1057.16	0.663765	0.664024	2.19812	11	0.885844	11	0	56.9782	0.00145961
2	1	0	1	0	0	1069.64	0.601352	0.601623	0.323897	11	0.899662	11	0	69.4608	0.000194864
2	0	0	0	0	0	1082.13	0.538938	0.539198	-0.0515669	11	0.900525	11	0	4.294	-2.78048e-05
2	0	0	1	0	0	1094.61	0.476525	0.476826	-0.0860097	11	0.899614	11	0	16.7767	-4.10117e-05
2	1	0	1	0	1	1106.86	0.484763	0.485023	0.0809712	12	0.899654	11	0	6.6907	3.92729e-05
2	1	0	1	0	1	1119.35	0.547177	0.547445	0.108754	12	0.900759	11	0	19.1734	5.95367e-05
2	1	0	1	0	1	1131.83	0.60959	0.6099	0.558854	12	0.903884	11	0	31.656	0.000340845
2	1	0	1	0	1	1144.31	0.672003	0.672276	2.62891	12	0.921907	11	0	44.1387	0.00176735
2	1	0	0	0	1	1156.65	0.666261	0.66649	2.28315	12	0.961375	11	0	56.4789	0.0015217
2	1	0	1	0	1	1169.13	0.603848	0.604139	0.355365	12	0.975882	11	0	68.9615	0.00021469
2	0	0	1	0	1	1181.62	0.541435	0.541725	-0.0451761	12	0.976903	11	0	3.9944	-2.4473e-05
2	0	0	1	0	1	1194.1	0.479022	0.479311	-0.0854135	12	0.97601	11	0	16.477	-4.09396e-05
2	1	0	1	0	0	1206.36	0.482267	0.482522	0.0837619	13	0.975967	11	0	6.1914	4.04169e-05
2	1	0	1	0	0	1218.84	0.54468	0.544979	0.104484	13	0.977057	11	0	18.6741	5.69416e-05
2	1	0	1	0	0	1231.32	0.607094	0.607357	0.508277	13	0.979934	11	0	31.1568	0.000308706
2	1	0	1	0	0	1243.8	0.669507	0.669794	2.50479	13	0.99683	11	0	43.6394	0.0016777
2	1	0	1	0	0	1256.14	0.668758	0.669016	2.36723	13	1.03623	11	0	55.9796	0.00158371
2	1	0	1	0	0	1268.63	0.606345	0.606536	0.391123	13	1.05159	11	0	68.4622	0.00023723
2	0	0	1	0	0	1281.11	0.543931	0.544205	-0.0442523	13	1.0528	11	0	3.4951	-2.40823e-05
2	0	0	1	0	0	1293.59	0.481518	0.481797	-0.0862946	13	1.05192	11	0	15.9778	-4.15765e-05
2	1	0	0	0	1	1305.85	0.47977	0.479999	0.0834891	14	1.0518	11	0	5.6921	4.00746e-05
2	1	0	1	0	1	1318.33	0.542184	0.542429	0.101135	14	1.05287	11	0	18.1748	5.48584e-05
2	1	0	1	0	1	1330.81	0.604597	0.604913	0.462898	14	1.05553	11	0	30.6574	0.000280013
2	1	0	0	0	1	1343.29	0.66701	0.667248	2.36492	14	1.07123	11	0	43.1401	0.00157799
2	1	0	1	0	1	1355.64	0.671255	0.671453	2.47993	14	1.11025	11	0	55.4802	0.00166516
2	1	0	0	0	1	1368.12	0.608841	0.609133	0.425819	14	1.12649	11	0	67.9629	0.00025938
2	0	0	1	0	1	1380.6	0.546428	0.546621	-0.0386694	14	1.12789	11	0	2.9958	-2.11375e-05
2	0	0	1	0	1	1393.08	0.484015	0.484244	-0.0835777	14	1.12704	11	0	15.4784	-4.0472e-05
2	1	0	1	0	0	1405.34	0.477274	0.477566	0.0804085	15	1.12683	11	0	5.1928	3.84004e-05
2	1	0	0	0	0	1417.82	0.539687	0.539924	0.0984755	15	1.1279	11	0	17.6755	5.31693e-05
2	1	0	1	0	0	1430.3	0.602101	0.602393	0.423597	15	1.13036	11	0	30.1582	0.000255172
2	1	0	1	0	0	1442.79	0.664514	0.664764	2.24082	15	1.145	11	0	42.6408	0.00148962
2	1	0	1	0	0	1455.13	0.67375	0.673999	2.6112	15	1.18397	11	0	54.981	0.00175995
2	1	0	1	0	0	1467.61	0.611338	0.611587	0.467957	15	1.20128	11	0	67.4636	0.000286196
2	0	0	0	0	0	1480.09	0.548924	0.549187	-0.0333321	15	1.2029	11	0	2.5964	-1.83055e-05
2	0	0	1	0	0	1492.57	0.486511	0.486779	-0.0828233	15	1.20207	11	0	15.079	-4.03167e-05
2	0	0	0	0	0	1499.87	0.449987	0.450359	-0.0956888	15	1.20143	11	0	22.3762	-4.30943e-05