File: ACS_Catal_2026/Figures_Na_K/main_figures/data/EC/20240126_2-102_Add_Na/20240201_2-102_017_add_Cs_5mL_elctrode5_C01.mpt
EC-Lab ASCII FILE
Nb header lines : 66

Cyclic Voltammetry Advanced

Run on channel : 1 (SN 66412)
User :
CE vs. WE compliance from -10 V to 10 V
Electrode connection : standard
Potential control : Ewe
Ewe ctrl range : min = -1.00 V, max = 1.00 V
Safety Limits :
	Do not start on E overload
Acquisition started on : 02/01/2024 15:18:58.671
Loaded Setting File :  C:\Users\NakamuraT\Documents\EC-Lab\Data\Yatsuzuka\20240126_2-102_Add_Na\20240201_2-102_006_K_elctrode6.mps
Saved on :
	File : 20240201_2-102_017_add_Cs_5mL_elctrode5_C01.mpr
	Directory : C:\Users\NakamuraT\Documents\EC-Lab\Data\Yatsuzuka\20240126_2-102_Add_Na\
	Host : 192.109.209.100
Device : SP-150e (SN .003411)
Address : 192.109.209.236
EC-Lab for windows v11.50 (software)
Internet server v11.50 (firmware)
Command interpretor v11.50 (firmware)
Electrode material :
Initial state :
Electrolyte :
Comments :
Electrode surface area : 0.001 cm2
Characteristic mass : 0.001 g
Equivalent Weight : 0.000 g/eq.
Density : 0.000 g/cm3
Volume (V) : 0.001 cm3
Cycle Definition : Charge/Discharge alternance
Ei (V)              0.450
vs.                 Ref
ti (h:m:s)          0:00:10.0000
dti (s)             0.0000
dE/dt               5.000
dE/dt unit          mV/s
E1 (V)              0.700
vs.                 Ref
t1 (h:m:s)          0:00:0.0000
dt1 (s)             0.1000
Step percent        50
N                   10
E range min (V)     -1.000
E range max (V)     1.000
I Range             10 mA
I Range min         Unset
I Range max         Unset
I Range init        Unset
Bandwidth           5
E2 (V)              0.450
vs.                 Ref
t2 (h:m:s)          0:00:0.0000
dt2 (s)             0.1000
nc cycles           14
nr                  1
Reverse Scan        0
Ef (V)              0.000
vs.                 Eoc
tf (h:m:s)          0:00:0.0000
dtf (s)             0.1000

mode	ox/red	error	control changes	Ns changes	counter inc.	time/s	control/V	Ewe/V	<I>/mA	cycle number	(Q-Qo)/C	I Range	Ns	step time/s	P/W
2	0	0	1	0	0	0.000000000000000E+000	0.450019	0.450308	-0.000963372	1	0.0000000E+000	11	0	0.000000000000000E+000	-4.33814e-07
2	1	0	1	0	0	12.257	0.511305	0.511635	0.165615	1	0.00112928	11	0	12.202	8.47344e-05
2	1	0	0	0	0	24.5592	0.572816	0.573119	1.20988	1	0.00778039	11	0	24.5042	0.000693402
2	1	0	1	0	0	36.8614	0.634327	0.634634	4.05512	1	0.0387955	11	0	36.8064	0.00257352
2	1	0	0	0	0	49.1636	0.695838	0.69615	7.71557	1	0.110856	11	0	49.1086	0.00537119
2	1	0	0	0	0	61.258	0.643678	0.64398	4.27574	1	0.185491	11	0	61.203	0.00275349
2	1	0	1	0	0	73.5602	0.582168	0.582496	1.29954	1	0.218286	11	0	73.5052	0.000756979
2	1	0	0	0	0	85.8624	0.520657	0.521002	0.100386	1	0.225	11	0	85.8074	5.23013e-05
2	0	0	1	0	0	98.1646	0.459146	0.459437	-0.0514759	1	0.224956	11	0	7.6014	-2.365e-05
2	1	0	0	0	1	110.346	0.501803	0.502155	0.114147	2	0.225624	11	0	10.2018	5.73194e-05
2	1	0	1	0	1	122.648	0.563314	0.563587	0.84641	2	0.230066	11	0	22.504	0.000477026
2	1	0	0	0	1	134.95	0.624825	0.625135	3.4059	2	0.254543	11	0	34.8062	0.00212915
2	1	0	1	0	1	147.252	0.686336	0.686633	6.98039	2	0.317954	11	0	47.1084	0.00479297
2	1	0	0	0	1	159.347	0.65318	0.653492	4.72379	2	0.39638	11	0	59.2026	0.00308696
2	1	0	1	0	1	171.649	0.591669	0.592022	1.59577	2	0.433986	11	0	71.5048	0.000944733
2	1	0	0	0	1	183.951	0.530158	0.530448	0.161559	2	0.442788	11	0	83.807	8.56987e-05
2	0	0	1	0	1	196.253	0.468647	0.46894	-0.0438268	2	0.443028	11	0	6.001	-2.05521e-05
2	1	0	0	0	0	208.434	0.492302	0.492589	0.0888295	3	0.443397	11	0	8.3014	4.37564e-05
2	1	0	1	0	0	220.737	0.553813	0.554144	0.602762	3	0.446523	11	0	20.6036	0.000334017
2	1	0	0	0	0	233.039	0.615323	0.615676	2.86801	3	0.465919	11	0	32.9058	0.00176577
2	1	0	1	0	0	245.341	0.676834	0.677135	6.37038	3	0.521995	11	0	45.208	0.00431361
2	1	0	1	0	0	257.435	0.662682	0.66298	5.30567	3	0.603397	11	0	57.3024	0.00351755
2	1	0	0	0	0	269.738	0.601171	0.601479	2.01611	3	0.647255	11	0	69.6046	0.00121264
2	1	0	1	0	0	282.04	0.53966	0.540008	0.282352	3	0.659373	11	0	81.9068	0.000152472
2	0	0	1	0	0	294.342	0.478149	0.47843	-0.0355171	3	0.660183	11	0	3.7007	-1.69925e-05
2	1	0	0	0	1	306.523	0.4828	0.483152	0.0767255	4	0.660331	11	0	6.401	3.70701e-05
2	1	0	1	0	1	318.825	0.544311	0.544608	0.447332	4	0.662707	11	0	18.7032	0.000243621
2	1	0	0	0	1	331.127	0.605822	0.606114	2.44353	4	0.678391	11	0	31.0054	0.00148106
2	1	0	1	0	1	343.43	0.667333	0.667639	5.89307	4	0.728753	11	0	43.3076	0.00393444
2	1	0	1	0	1	355.524	0.672184	0.672451	6.11098	4	0.813113	11	0	55.402	0.00410933
2	1	0	0	0	1	367.826	0.610673	0.61097	2.57872	4	0.865591	11	0	67.7042	0.00157552
2	1	0	1	0	1	380.128	0.549162	0.549481	0.454046	4	0.882265	11	0	80.0064	0.000249489
2	0	0	0	0	1	392.431	0.487651	0.487964	-0.0187805	4	0.883915	11	0	1.6004	-9.16422e-06
2	1	0	1	0	0	404.612	0.473298	0.473608	0.0671764	5	0.883881	11	0	4.5008	3.18153e-05
2	1	0	0	0	0	416.914	0.534809	0.535155	0.322922	5	0.885683	11	0	16.803	0.000172814
2	1	0	1	0	0	429.216	0.59632	0.596629	1.99017	5	0.897787	11	0	29.1052	0.00118739
2	1	0	1	0	0	441.518	0.657831	0.658137	5.26339	5	0.941351	11	0	41.4073	0.00346403
2	1	0	1	0	0	453.613	0.681685	0.68203	6.66423	5	1.02346	11	0	53.5016	0.0045452
2	1	0	0	0	0	465.915	0.620174	0.620481	3.01709	5	1.08215	11	0	65.8038	0.00187204
2	1	0	1	0	0	478.217	0.558663	0.558985	0.632064	5	1.10274	11	0	78.106	0.000353314
2	1	0	0	0	0	490.519	0.497152	0.497419	-0.000404608	5	1.10535	11	0	90.4082	-2.0126e-07
2	1	0	1	0	1	502.7	0.463797	0.464102	0.0588817	6	1.10517	11	0	2.6004	2.73271e-05
2	1	0	0	0	1	515.003	0.525307	0.525641	0.226575	6	1.10655	11	0	14.9026	0.000119097
2	1	0	1	0	1	527.305	0.586818	0.587146	1.56681	6	1.11555	11	0	27.2048	0.000919946
2	1	0	0	0	1	539.607	0.648329	0.648637	4.64574	6	1.15249	11	0	39.507	0.0030134
2	1	0	0	0	1	551.701	0.691187	0.691478	7.24696	6	1.2301	11	0	51.6014	0.00501111
2	1	0	1	0	1	564.003	0.629676	0.630036	3.49267	6	1.29533	11	0	63.9035	0.00220051
2	1	0	1	0	1	576.306	0.568165	0.568495	0.852969	6	1.32034	11	0	76.2057	0.000484909
2	1	0	0	0	1	588.608	0.506654	0.507008	0.0268864	6	1.32422	11	0	88.5078	1.36316e-05
2	1	0	1	0	0	600.789	0.454295	0.454563	0.0497817	7	1.32395	11	0	0.7	2.26289e-05
2	1	0	0	0	0	613.091	0.515806	0.516128	0.162679	7	1.32504	11	0	13.0022	8.39632e-05
2	1	0	1	0	0	625.393	0.577317	0.577639	1.19773	7	1.33161	11	0	25.3044	0.000691853
2	1	0	0	0	0	637.696	0.638828	0.639097	4.05068	7	1.36246	11	0	37.6066	0.00258878
2	1	0	0	0	0	649.925	0.700014	0.700345	7.82277	7	1.4345	11	0	49.836	0.00547864
2	1	0	1	0	0	662.092	0.639178	0.63945	3.9512	7	1.50512	11	0	62.0032	0.00252659
2	1	0	0	0	0	674.394	0.577667	0.577959	1.11715	7	1.53483	11	0	74.3054	0.000645664
2	1	0	1	0	0	686.697	0.516156	0.516401	0.0666543	7	1.54034	11	0	86.6076	3.44203e-05
2	0	0	0	0	0	698.999	0.454645	0.454936	-0.0537312	7	1.54017	11	0	8.6016	-2.44443e-05
2	1	0	1	0	1	711.18	0.506304	0.50662	0.121391	8	1.54097	11	0	11.1019	6.1499e-05
2	1	0	1	0	1	723.482	0.567815	0.56813	0.892066	8	1.5457	11	0	23.4041	0.000506809
2	1	0	1	0	1	735.784	0.629326	0.629704	3.4881	8	1.57094	11	0	35.7063	0.00219647
2	1	0	1	0	1	748.086	0.690837	0.691136	7.16584	8	1.63581	11	0	48.0084	0.00495257
2	1	0	1	0	1	760.181	0.648679	0.64896	4.47065	8	1.71155	11	0	60.1028	0.00290127
2	1	0	0	0	1	772.483	0.587168	0.587469	1.42427	8	1.74647	11	0	72.405	0.000836713
2	1	0	1	0	1	784.785	0.525657	0.525961	0.122672	8	1.75405	11	0	84.7072	6.45206e-05
2	0	0	0	0	1	797.087	0.464147	0.464485	-0.0480122	8	1.75414	11	0	6.7012	-2.23009e-05
2	1	0	1	0	0	809.269	0.496802	0.497083	0.0948884	9	1.75462	11	0	9.2016	4.71675e-05
2	1	0	0	0	0	821.571	0.558313	0.558638	0.645654	9	1.75801	11	0	21.5038	0.000360687
2	1	0	1	0	0	833.873	0.619824	0.620147	2.9491	9	1.77823	11	0	33.806	0.00182888
2	1	0	0	0	0	846.175	0.681335	0.681672	6.50206	9	1.83565	11	0	46.1082	0.00443227
2	1	0	1	0	0	858.269	0.658181	0.658497	4.96072	9	1.91464	11	0	58.2024	0.00326662
2	1	0	0	0	0	870.572	0.59667	0.596997	1.7643	9	1.95491	11	0	70.5046	0.00105328
2	1	0	1	0	0	882.874	0.535159	0.535476	0.204145	9	1.96495	11	0	82.8068	0.000109315
2	0	0	0	0	0	895.176	0.473648	0.473933	-0.0369914	9	1.9654	11	0	5.0008	-1.75314e-05
2	1	0	1	0	1	907.357	0.487301	0.487616	0.0824057	10	1.96563	11	0	7.3012	4.01823e-05
2	1	0	0	0	1	919.659	0.548812	0.5491	0.461663	10	1.96808	11	0	19.6034	0.000253499
2	1	0	1	0	1	931.962	0.610323	0.610641	2.44554	10	1.9839	11	0	31.9056	0.00149335
2	1	0	0	0	1	944.264	0.671834	0.672202	5.85564	10	2.03411	11	0	44.2078	0.00393618
2	1	0	0	0	1	956.358	0.667683	0.667965	5.49555	10	2.11422	11	0	56.3022	0.00367083
2	1	0	1	0	1	968.66	0.606172	0.606422	2.14247	10	2.16016	11	0	68.6044	0.00129924
2	1	0	0	0	1	980.963	0.544661	0.544915	0.308547	10	2.1732	11	0	80.9066	0.000168132
2	0	0	1	0	1	993.265	0.48315	0.483417	-0.0309157	10	2.17416	11	0	3.1006	-1.49452e-05
2	1	0	1	0	0	1005.45	0.477799	0.478132	0.0683627	11	2.17418	11	0	5.3009	3.26864e-05
2	1	0	0	0	0	1017.75	0.53931	0.539618	0.326468	11	2.17599	11	0	17.603	0.000176168
2	1	0	1	0	0	1030.05	0.600821	0.601129	1.98548	11	2.18811	11	0	29.9052	0.00119353
2	1	0	0	0	0	1042.35	0.662332	0.662627	5.22954	11	2.23146	11	0	42.2074	0.00346523
2	1	0	0	0	0	1054.45	0.677184	0.677471	6.02538	11	2.31052	11	0	54.3018	0.00408202
2	1	0	1	0	0	1066.75	0.615673	0.616004	2.54947	11	2.36231	11	0	66.604	0.00157048
2	1	0	0	0	0	1079.05	0.554163	0.554485	0.449879	11	2.37877	11	0	78.9062	0.000249451
2	0	0	1	0	0	1091.35	0.492652	0.492977	-0.0135403	11	2.38043	11	0	1.3002	-6.67507e-06
2	1	0	0	0	1	1103.53	0.468297	0.468611	0.0621728	12	2.38028	11	0	3.4006	2.91349e-05
2	1	0	1	0	1	1115.84	0.529808	0.530142	0.22918	12	2.38167	11	0	15.7028	0.000121498
2	1	0	0	0	1	1128.14	0.591319	0.591635	1.56361	12	2.39072	11	0	28.005	0.000925084
2	1	0	1	0	1	1140.44	0.65283	0.653111	4.61892	12	2.42757	11	0	40.3072	0.00301667
2	1	0	0	0	1	1152.54	0.686686	0.686979	6.60991	12	2.50341	11	0	52.4014	0.00454087
2	1	0	1	0	1	1164.84	0.625175	0.625409	2.98082	12	2.56146	11	0	64.7036	0.00186423
2	1	0	0	0	1	1177.14	0.563664	0.563966	0.623807	12	2.58179	11	0	77.0058	0.000351806
2	0	0	1	0	1	1189.44	0.502153	0.502454	0.00351669	12	2.58441	11	0	89.308	1.76698e-06
2	1	0	0	0	0	1201.62	0.458796	0.459133	0.0562364	13	2.58413	11	0	1.5002	2.582e-05
2	1	0	1	0	0	1213.93	0.520307	0.520679	0.169248	13	2.58525	11	0	13.8024	8.8124e-05
2	1	0	0	0	0	1226.23	0.581818	0.582125	1.20442	13	2.59189	11	0	26.1046	0.000701121
2	1	0	1	0	0	1238.53	0.643328	0.643658	4.0323	13	2.62268	11	0	38.4068	0.00259542
2	1	0	1	0	0	1250.62	0.696188	0.696474	7.18315	13	2.69286	11	0	50.5012	0.00500288
2	1	0	0	0	0	1262.93	0.634677	0.635012	3.42604	13	2.75721	11	0	62.8034	0.00217558
2	1	0	1	0	0	1275.23	0.573166	0.573502	0.85015	13	2.7819	11	0	75.1056	0.000487562
2	1	0	1	0	0	1287.53	0.511655	0.511957	0.0329893	13	2.78579	11	0	87.4077	1.68891e-05
2	0	0	0	0	0	1299.82	0.450219	0.450561	-0.0534971	13	2.78547	11	0	9.8866	-2.41037e-05
2	1	0	1	0	1	1312.01	0.510805	0.511119	0.126698	14	2.78637	11	0	12.002	6.47579e-05
2	1	0	0	0	1	1324.32	0.572316	0.572616	0.903569	14	2.79118	11	0	24.3042	0.000517398
2	1	0	1	0	1	1336.62	0.633827	0.634174	3.48168	14	2.81647	11	0	36.6064	0.00220799
2	1	0	0	0	1	1348.92	0.695338	0.695672	7.1463	14	2.88121	11	0	48.9086	0.00497149
2	1	0	0	0	1	1361.01	0.644179	0.644445	3.92358	14	2.95067	11	0	61.003	0.00252853
2	1	0	1	0	1	1373.32	0.582668	0.583015	1.11716	14	2.98017	11	0	73.3052	0.00065132
2	1	0	0	0	1	1385.62	0.521157	0.521445	0.0741678	14	2.98573	11	0	85.6074	3.86744e-05
2	0	0	1	0	1	1397.92	0.459646	0.459952	-0.0511665	14	2.98559	11	0	8.3016	-2.35341e-05
2	1	0	0	0	0	1410.1	0.501303	0.501645	0.0971063	15	2.98618	11	0	10.0018	4.87128e-05
2	1	0	1	0	0	1422.4	0.562814	0.563149	0.657691	15	2.98966	11	0	22.304	0.000370378
2	1	0	0	0	0	1434.71	0.624325	0.624636	2.95026	15	3.01001	11	0	34.6062	0.00184284
2	1	0	1	0	0	1447.01	0.685836	0.686043	6.48754	15	3.06733	11	0	46.9083	0.00445073
2	1	0	0	0	0	1459.1	0.65368	0.653953	4.40812	15	3.14115	11	0	59.0026	0.0028827
2	1	0	1	0	0	1471.41	0.592169	0.592488	1.41428	15	3.17566	11	0	71.3048	0.000837942
2	1	0	0	0	0	1483.71	0.530658	0.530939	0.131752	15	3.18323	11	0	83.607	6.99524e-05
2	0	0	1	0	0	1496.01	0.469147	0.469424	-0.0415768	15	3.18335	11	0	6.4012	-1.95171e-05
2	0	0	1	0	0	1499.83	0.450019	0.450327	-0.0663977	15	3.18316	11	0	10.2258	-2.99007e-05