File: ACS_Catal_2026/Figures_Na_K/main_figures/data/EC/20240126_2-102_Add_Na/20240125_2-102_006_add_Na_5mL_elctrode2_C02.mpt
EC-Lab ASCII FILE
Nb header lines : 66

Cyclic Voltammetry Advanced

Run on channel : 2 (SN 66414)
User :
CE vs. WE compliance from -10 V to 10 V
Electrode connection : standard
Potential control : Ewe
Ewe ctrl range : min = -1.00 V, max = 1.00 V
Safety Limits :
	Do not start on E overload
Acquisition started on : 01/26/2024 16:20:08.438
Loaded Setting File :  C:\Users\NakamuraT\Documents\EC-Lab\Data\Yatsuzuka\20240126_2-102_Add_Na\20240125_2-102_003_K_elctrode1_C01.mpr
Saved on :
	File : 20240125_2-102_006_add_Na_5mL_elctrode2_C02.mpr
	Directory : C:\Users\NakamuraT\Documents\EC-Lab\Data\Yatsuzuka\20240126_2-102_Add_Na\
	Host : 192.109.209.100
Device : SP-150e (SN .003411)
Address : 192.109.209.236
EC-Lab for windows v11.50 (software)
Internet server v11.50 (firmware)
Command interpretor v11.50 (firmware)
Electrode material :
Initial state :
Electrolyte :
Comments :
Electrode surface area : 0.001 cm2
Characteristic mass : 0.001 g
Equivalent Weight : 0.000 g/eq.
Density : 0.000 g/cm3
Volume (V) : 0.001 cm3
Cycle Definition : Charge/Discharge alternance
Ei (V)              0.450
vs.                 Ref
ti (h:m:s)          0:00:10.0000
dti (s)             0.0000
dE/dt               5.000
dE/dt unit          mV/s
E1 (V)              0.700
vs.                 Ref
t1 (h:m:s)          0:00:0.0000
dt1 (s)             0.1000
Step percent        50
N                   10
E range min (V)     -1.000
E range max (V)     1.000
I Range             10 mA
I Range min         Unset
I Range max         Unset
I Range init        Unset
Bandwidth           5
E2 (V)              0.450
vs.                 Ref
t2 (h:m:s)          0:00:0.0000
dt2 (s)             0.1000
nc cycles           14
nr                  1
Reverse Scan        0
Ef (V)              0.000
vs.                 Eoc
tf (h:m:s)          0:00:0.0000
dtf (s)             0.1000

mode	ox/red	error	control changes	Ns changes	counter inc.	time/s	control/V	Ewe/V	<I>/mA	cycle number	(Q-Qo)/C	I Range	Ns	step time/s	P/W
2	1	0	1	0	0	0.000000000000000E+000	0.449961	0.450216	0.00276917	1	0.0000000E+000	11	0	0.000000000000000E+000	1.24673e-06
2	1	0	1	0	0	12.3566	0.511744	0.512063	0.0761728	1	0.000756191	11	0	12.3016	3.90053e-05
2	1	0	1	0	0	24.7582	0.573752	0.574093	0.383849	1	0.00288637	11	0	24.7032	0.000220365
2	1	0	1	0	0	37.1598	0.63576	0.636069	2.13046	1	0.0165012	11	0	37.1048	0.00135512
2	1	0	1	0	0	49.5614	0.697768	0.698126	5.33577	1	0.0618173	11	0	49.5064	0.00372504
2	1	0	0	0	0	61.7692	0.641161	0.641525	2.25894	1	0.108385	11	0	61.7142	0.00144916
2	1	0	0	0	0	74.1708	0.579153	0.579442	0.359561	1	0.122612	11	0	74.1158	0.000208344
2	0	0	0	0	0	86.5724	0.517145	0.517439	-0.0202274	1	0.123867	11	0	2.3004	-1.04665e-05
2	0	0	0	0	0	98.974	0.455137	0.455357	-0.0584162	1	0.123309	11	0	14.702	-2.66003e-05
2	1	0	0	0	1	111.253	0.506293	0.506571	0.0675415	2	0.12388	11	0	11.0014	3.42146e-05
2	1	0	0	0	1	123.655	0.568301	0.568596	0.303596	2	0.125607	11	0	23.403	0.000172623
2	1	0	0	0	1	136.056	0.630309	0.630605	1.85327	2	0.136957	11	0	35.8046	0.00116868
2	1	0	0	0	1	148.458	0.692317	0.692585	4.94714	2	0.178113	11	0	48.2062	0.00342631
2	1	0	1	0	1	160.656	0.646661	0.64697	2.46403	2	0.227107	11	0	60.404	0.00159416
2	1	0	1	0	1	173.057	0.584653	0.584916	0.442401	2	0.243197	11	0	72.8056	0.000258767
2	0	0	1	0	1	185.459	0.522645	0.522935	-0.0142303	2	0.244861	11	0	1.3002	-7.4415e-06
2	0	0	1	0	1	197.86	0.460637	0.460867	-0.0579521	2	0.244337	11	0	13.7018	-2.67082e-05
2	1	0	1	0	0	210.139	0.500793	0.501153	0.0643695	3	0.244769	11	0	9.9012	3.2259e-05
2	1	0	1	0	0	222.541	0.562801	0.563135	0.246864	3	0.246244	11	0	22.3028	0.000139018
2	1	0	1	0	0	234.943	0.624809	0.625097	1.62405	3	0.255876	11	0	34.7044	0.00101519
2	1	0	1	0	0	247.344	0.686817	0.687093	4.62993	3	0.293504	11	0	47.106	0.0031812
2	1	0	0	0	0	259.542	0.652162	0.652517	2.7155	3	0.344804	11	0	59.3038	0.00177191
2	1	0	0	0	0	271.944	0.590154	0.590477	0.543372	3	0.363161	11	0	71.7054	0.000320848
2	1	0	0	0	0	284.345	0.528146	0.528389	-0.00416167	3	0.365365	11	0	0.1	-2.19898e-06
2	0	0	0	0	0	296.747	0.466138	0.466465	-0.0550711	3	0.364896	11	0	12.5016	-2.56887e-05
2	1	0	0	0	1	309.026	0.495292	0.495627	0.0603668	4	0.365198	11	0	8.801	2.99194e-05
2	1	0	0	0	1	321.427	0.5573	0.557559	0.207243	4	0.366482	11	0	21.2026	0.00011555
2	1	0	0	0	1	333.829	0.619308	0.619523	1.41418	4	0.374647	11	0	33.6042	0.000876117
2	1	0	1	0	1	346.231	0.681316	0.681677	4.30797	4	0.408896	11	0	46.006	0.00293664
2	1	0	0	0	1	358.429	0.657663	0.657943	2.98041	4	0.461933	11	0	58.2038	0.00196094
2	1	0	0	0	1	370.83	0.595655	0.59605	0.654892	4	0.482738	11	0	70.6054	0.000390348
2	1	0	0	0	1	383.232	0.533647	0.533952	0.0099705	4	0.485559	11	0	83.007	5.32377e-06
2	0	0	0	0	1	395.633	0.471639	0.471876	-0.0513939	4	0.485152	11	0	11.5016	-2.42516e-05
2	1	0	0	0	0	407.912	0.489791	0.490046	0.0571392	5	0.48533	11	0	7.701	2.80008e-05
2	1	0	0	0	0	420.314	0.551799	0.552167	0.173029	5	0.486467	11	0	20.1026	9.55409e-05
2	1	0	0	0	0	432.716	0.613807	0.614153	1.22769	5	0.493356	11	0	32.5042	0.000753992
2	1	0	0	0	0	445.117	0.675815	0.676055	4.00845	5	0.524449	11	0	44.9058	0.00270993
2	1	0	1	0	0	457.315	0.663164	0.663424	3.25833	5	0.578665	11	0	57.1036	0.00216165
2	1	0	1	0	0	469.717	0.601156	0.601418	0.77987	5	0.602058	11	0	69.5052	0.000469028
2	1	0	1	0	0	482.118	0.539148	0.539452	0.024743	5	0.605637	11	0	81.9068	1.33477e-05
2	0	0	1	0	0	494.52	0.47714	0.477469	-0.0526764	5	0.605306	11	0	10.5014	-2.51514e-05
2	1	0	1	0	1	506.799	0.48429	0.484593	0.0581143	6	0.605359	11	0	6.6008	2.81618e-05
2	1	0	1	0	1	519.2	0.546298	0.546586	0.147053	6	0.606383	11	0	19.0024	8.03772e-05
2	1	0	1	0	1	531.602	0.608307	0.608614	1.05639	6	0.612171	11	0	31.404	0.000642935
2	1	0	1	0	1	544.004	0.670314	0.670659	3.71681	6	0.640243	11	0	43.8056	0.00249272
2	1	0	0	0	1	556.201	0.668664	0.668886	3.54282	6	0.694936	11	0	56.0034	0.00236974
2	1	0	0	0	1	568.603	0.606656	0.606918	0.929406	6	0.721019	11	0	68.405	0.000564073
2	1	0	0	0	1	581.005	0.544648	0.544953	0.0449696	6	0.72547	11	0	80.8066	2.45063e-05
2	0	0	0	0	1	593.406	0.48264	0.482952	-0.0484773	6	0.725229	11	0	9.4012	-2.34122e-05
2	1	0	0	0	0	605.685	0.47879	0.479094	0.0564248	7	0.725168	11	0	5.5006	2.70328e-05
2	1	0	0	0	0	618.087	0.540798	0.541108	0.12145	7	0.726103	11	0	17.9022	6.57175e-05
2	1	0	0	0	0	630.488	0.602806	0.603104	0.896957	7	0.730927	11	0	30.3038	0.000540958
2	1	0	0	0	0	642.89	0.664814	0.665091	3.41224	7	0.756043	11	0	42.7054	0.00226945
2	1	0	1	0	0	655.088	0.674165	0.674529	3.82555	7	0.810353	11	0	54.9032	0.00258045
2	1	0	1	0	0	667.489	0.612157	0.612445	1.08179	7	0.839284	11	0	67.3048	0.000662539
2	1	0	1	0	0	679.891	0.550149	0.550366	0.0720302	7	0.844721	11	0	79.7064	3.9643e-05
2	0	0	1	0	0	692.293	0.488141	0.488552	-0.0445275	7	0.844592	11	0	8.3012	-2.1754e-05
2	1	0	0	0	1	704.572	0.473289	0.473555	0.0545463	8	0.844417	11	0	4.4006	2.58307e-05
2	1	0	0	0	1	716.973	0.535297	0.53557	0.104904	8	0.845284	11	0	16.8022	5.61837e-05
2	1	0	0	0	1	729.375	0.597305	0.597627	0.751152	8	0.849293	11	0	29.2038	0.000448909
2	1	0	0	0	1	741.777	0.659313	0.659541	3.12192	8	0.871589	11	0	41.6054	0.00205903
2	1	0	1	0	1	753.974	0.679666	0.679924	4.13721	8	0.925136	11	0	53.8032	0.00281299
2	1	0	1	0	1	766.376	0.617658	0.617996	1.26191	8	0.957212	11	0	66.2048	0.000779855
2	1	0	1	0	1	778.778	0.55565	0.555928	0.101356	8	0.963858	11	0	78.6064	5.63469e-05
2	0	0	1	0	1	791.179	0.493642	0.493933	-0.0461004	8	0.963877	11	0	7.301	-2.27705e-05
2	1	0	1	0	0	803.458	0.467788	0.468098	0.0529131	9	0.963593	11	0	3.3004	2.47685e-05
2	1	0	1	0	0	815.86	0.529796	0.53	0.092463	9	0.964411	11	0	15.702	4.90054e-05
2	1	0	1	0	0	828.261	0.591804	0.592135	0.62911	9	0.967744	11	0	28.1036	0.000372518
2	1	0	1	0	0	840.663	0.653812	0.654111	2.84343	9	0.987427	11	0	40.5052	0.00185992
2	1	0	0	0	0	852.861	0.685166	0.685484	4.44423	9	1.03936	11	0	52.703	0.00304645
2	1	0	0	0	0	865.262	0.623158	0.623491	1.4392	9	1.0744	11	0	65.1046	0.000897331
2	1	0	0	0	0	877.664	0.56115	0.561479	0.140105	9	1.08229	11	0	77.5062	7.86662e-05
2	0	0	0	0	0	890.066	0.499142	0.49942	-0.038721	9	1.08248	11	0	6.1008	-1.9338e-05
2	1	0	0	0	1	902.345	0.462288	0.462615	0.055032	10	1.08209	11	0	2.2002	2.54586e-05
2	1	0	0	0	1	914.746	0.524296	0.524635	0.0857509	10	1.08287	11	0	14.6018	4.49879e-05
2	1	0	0	0	1	927.148	0.586304	0.586723	0.518412	10	1.08563	11	0	27.0034	0.000304164
2	1	0	0	0	1	939.549	0.648312	0.648603	2.56492	10	1.10283	11	0	39.405	0.00166362
2	1	0	1	0	1	951.747	0.690667	0.691002	4.75066	10	1.15247	11	0	51.6028	0.00328272
2	1	0	1	0	1	964.149	0.628659	0.628974	1.63959	10	1.19073	11	0	64.0044	0.00103126
2	1	0	1	0	1	976.55	0.566651	0.566979	0.184671	10	1.20007	11	0	76.406	0.000104705
2	0	0	1	0	1	988.952	0.504643	0.504916	-0.0366665	10	1.20047	11	0	5.1006	-1.85135e-05
2	1	0	1	0	0	1001.23	0.456787	0.457118	0.0504419	11	1.19999	11	0	1.1	2.30579e-05
2	1	0	1	0	0	1013.63	0.518795	0.51915	0.0766892	11	1.20073	11	0	13.5017	3.98132e-05
2	1	0	1	0	0	1026.03	0.580803	0.581036	0.425023	11	1.20304	11	0	25.9033	0.000246954
2	1	0	1	0	0	1038.44	0.642811	0.643133	2.30169	11	1.21795	11	0	38.3049	0.0014803
2	1	0	1	0	0	1050.63	0.696168	0.696436	5.0683	11	1.26466	11	0	50.5028	0.00352974
2	1	0	1	0	0	1063.04	0.63416	0.634471	1.85301	11	1.30636	11	0	62.9044	0.00117568
2	1	0	1	0	0	1075.44	0.572152	0.572433	0.235298	11	1.31733	11	0	75.306	0.000134692
2	0	0	1	0	0	1087.84	0.510144	0.510538	-0.0334246	11	1.31797	11	0	4.0006	-1.70645e-05
2	1	0	1	0	1	1100.12	0.451286	0.4515	0.0292046	12	1.3174	11	0	0.000000000000000E+000	1.31859e-05
2	1	0	1	0	1	1112.52	0.513294	0.513647	0.0723747	12	1.31811	11	0	12.4016	3.71751e-05
2	1	0	1	0	1	1124.92	0.575302	0.575557	0.348474	12	1.32004	11	0	24.8032	0.000200566
2	1	0	1	0	1	1137.32	0.63731	0.637603	2.04712	12	1.33288	11	0	37.2048	0.00130525
2	1	0	1	0	1	1149.72	0.699318	0.699578	5.23707	12	1.37709	11	0	49.6064	0.00366374
2	1	0	0	0	1	1161.92	0.639661	0.640028	2.06713	12	1.4209	11	0	61.8042	0.00132302
2	1	0	0	0	1	1174.32	0.577653	0.577868	0.298139	12	1.43354	11	0	74.2058	0.000172285
2	0	0	0	0	1	1186.72	0.515645	0.515967	-0.0242814	12	1.43449	11	0	3.0004	-1.25284e-05
2	0	0	0	0	1	1199.13	0.453637	0.453868	-0.0559134	12	1.43393	11	0	15.402	-2.53773e-05
2	1	0	0	0	0	1211.41	0.507794	0.508118	0.0650192	13	1.43452	11	0	11.3014	3.30374e-05
2	1	0	0	0	0	1223.81	0.569802	0.570045	0.287349	13	1.43616	11	0	23.703	0.000163802
2	1	0	0	0	0	1236.21	0.63181	0.632187	1.80281	13	1.44711	11	0	36.1046	0.00113971
2	1	0	0	0	0	1248.61	0.693818	0.694154	4.88518	13	1.48756	11	0	48.5062	0.00339107
2	1	0	1	0	0	1260.81	0.645161	0.645402	2.27708	13	1.53414	11	0	60.704	0.00146963
2	1	0	1	0	0	1273.21	0.583153	0.583425	0.369272	13	1.54857	11	0	73.1056	0.000215442
2	0	0	1	0	0	1285.61	0.521145	0.521376	-0.0174827	13	1.54988	11	0	2.0002	-9.11508e-06
2	0	0	1	0	0	1298.01	0.459137	0.459437	-0.0568737	13	1.54935	11	0	14.4018	-2.61298e-05
2	1	0	1	0	1	1310.29	0.502293	0.502582	0.0602284	14	1.54981	11	0	10.2012	3.02697e-05
2	1	0	1	0	1	1322.69	0.564301	0.564568	0.236471	14	1.55121	11	0	22.6028	0.000133504
2	1	0	1	0	1	1335.1	0.626309	0.626672	1.57787	14	1.56049	11	0	35.0044	0.000988809
2	1	0	1	0	1	1347.5	0.688317	0.688569	4.56202	14	1.5974	11	0	47.406	0.00314127
2	1	0	1	0	1	1359.69	0.650662	0.65097	2.51347	14	1.64633	11	0	59.6039	0.00163619
2	1	0	1	0	1	1372.1	0.588654	0.588949	0.455864	14	1.6628	11	0	72.0055	0.000268481
2	1	0	1	0	1	1384.5	0.526646	0.526852	-0.00987432	14	1.66456	11	0	1.0001	-5.2023e-06
2	0	0	1	0	1	1396.9	0.464638	0.464943	-0.0527269	14	1.66407	11	0	13.4018	-2.4515e-05
2	1	0	1	0	0	1409.18	0.496792	0.497082	0.0599969	15	1.6644	11	0	9.1012	2.98233e-05
2	1	0	1	0	0	1421.58	0.5588	0.559129	0.193799	15	1.66562	11	0	21.5028	0.000108359
2	1	0	1	0	0	1433.98	0.620808	0.621093	1.36675	15	1.67343	11	0	33.9044	0.000848879
2	1	0	1	0	0	1446.38	0.682816	0.683078	4.23182	15	1.7069	11	0	46.306	0.00289066
2	1	0	0	0	0	1458.58	0.656163	0.65643	2.74808	15	1.75741	11	0	58.5038	0.00180392
2	1	0	0	0	0	1470.98	0.594155	0.594418	0.550168	15	1.77598	11	0	70.9054	0.00032703
2	0	0	0	0	0	1483.38	0.532147	0.532459	0.000141314	15	1.77824	11	0	0.000000000000000E+000	7.52441e-08
2	0	0	0	0	0	1495.79	0.470139	0.47043	-0.0529425	15	1.7778	11	0	12.3016	-2.49057e-05
2	0	0	1	0	0	1499.81	0.450011	0.450274	-0.0555623	15	1.77757	11	0	16.3244	-2.50182e-05