File: ACS_Catal_2026/Figures_Na_K/main_figures/data/EC/20240126_2-102_Add_Na/20240125_2-102_009_K_elctrode3_C01.mpt
EC-Lab ASCII FILE
Nb header lines : 66

Cyclic Voltammetry Advanced

Run on channel : 1 (SN 66412)
User :
CE vs. WE compliance from -10 V to 10 V
Electrode connection : standard
Potential control : Ewe
Ewe ctrl range : min = -1.00 V, max = 1.00 V
Safety Limits :
	Do not start on E overload
Acquisition started on : 01/26/2024 17:13:31.025
Loaded Setting File :  C:\Users\NakamuraT\Documents\EC-Lab\Data\Yatsuzuka\20240126_2-102_Add_Na\20240125_2-102_003_K_elctrode1.mps
Saved on :
	File : 20240125_2-102_009_K_elctrode3_C01.mpr
	Directory : C:\Users\NakamuraT\Documents\EC-Lab\Data\Yatsuzuka\20240126_2-102_Add_Na\
	Host : 192.109.209.100
Device : SP-150e (SN .003411)
Address : 192.109.209.236
EC-Lab for windows v11.50 (software)
Internet server v11.50 (firmware)
Command interpretor v11.50 (firmware)
Electrode material :
Initial state :
Electrolyte :
Comments :
Electrode surface area : 0.001 cm2
Characteristic mass : 0.001 g
Equivalent Weight : 0.000 g/eq.
Density : 0.000 g/cm3
Volume (V) : 0.001 cm3
Cycle Definition : Charge/Discharge alternance
Ei (V)              0.450
vs.                 Ref
ti (h:m:s)          0:00:10.0000
dti (s)             0.0000
dE/dt               5.000
dE/dt unit          mV/s
E1 (V)              0.700
vs.                 Ref
t1 (h:m:s)          0:00:0.0000
dt1 (s)             0.1000
Step percent        50
N                   10
E range min (V)     -1.000
E range max (V)     1.000
I Range             10 mA
I Range min         Unset
I Range max         Unset
I Range init        Unset
Bandwidth           5
E2 (V)              0.450
vs.                 Ref
t2 (h:m:s)          0:00:0.0000
dt2 (s)             0.1000
nc cycles           14
nr                  1
Reverse Scan        0
Ef (V)              0.000
vs.                 Eoc
tf (h:m:s)          0:00:0.0000
dtf (s)             0.1000

mode	ox/red	error	control changes	Ns changes	counter inc.	time/s	control/V	Ewe/V	<I>/mA	cycle number	(Q-Qo)/C	I Range	Ns	step time/s	P/W
2	1	0	0	0	0	0.000000000000000E+000	0.44994	0.450333	0.0094777	1	0.0000000E+000	11	0	0.000000000000000E+000	4.26812e-06
2	1	0	1	0	0	12.4572	0.512226	0.512562	0.125102	1	0.00122675	11	0	12.4022	6.41228e-05
2	1	0	0	0	0	24.9594	0.574737	0.575003	0.407952	1	0.00397692	11	0	24.9044	0.000234574
2	1	0	1	0	0	37.4616	0.637249	0.63756	1.95491	1	0.0168957	11	0	37.4066	0.00124638
2	1	0	0	0	0	49.9588	0.699735	0.699993	4.90913	1	0.0588828	11	0	49.9038	0.00343635
2	1	0	1	0	0	62.274	0.638649	0.638885	1.76091	1	0.0987069	11	0	62.219	0.00112502
2	1	0	0	0	0	74.7762	0.576138	0.576458	0.19712	1	0.108904	11	0	74.7212	0.000113632
2	0	0	1	0	0	87.2784	0.513627	0.513913	-0.0485312	1	0.109243	11	0	5.801	-2.49408e-05
2	0	0	0	0	0	99.7806	0.451115	0.451419	-0.0782004	1	0.108415	11	0	18.3032	-3.53012e-05
2	1	0	0	0	1	112.156	0.510776	0.511097	0.0783702	2	0.109247	11	0	11.902	4.00548e-05
2	1	0	1	0	1	124.658	0.573287	0.573591	0.270701	2	0.110943	11	0	24.4042	0.000155271
2	1	0	1	0	1	137.161	0.635798	0.63608	1.68754	2	0.121228	11	0	36.9066	0.00107341
2	1	0	0	0	1	149.663	0.698309	0.698617	4.61019	2	0.159614	11	0	49.4088	0.00322076
2	1	0	1	0	1	161.963	0.640149	0.640375	1.7068	2	0.198204	11	0	61.709	0.00109299
2	1	0	0	0	1	174.465	0.577638	0.577984	0.187998	2	0.208052	11	0	74.2112	0.00010866
2	0	0	1	0	1	186.967	0.515127	0.515422	-0.0491271	2	0.208342	11	0	6.001	-2.53212e-05
2	0	0	0	0	1	199.47	0.452616	0.452892	-0.0760735	2	0.207513	11	0	18.5032	-3.44531e-05
2	1	0	0	0	0	211.845	0.509276	0.509587	0.0751856	3	0.208265	11	0	11.602	3.83136e-05
2	1	0	1	0	0	224.347	0.571787	0.572049	0.238334	3	0.20979	11	0	24.1042	0.000136339
2	1	0	0	0	0	236.849	0.634298	0.634611	1.55937	3	0.21908	11	0	36.6064	0.000989591
2	1	0	1	0	0	249.352	0.696809	0.697102	4.44389	3	0.255556	11	0	49.1086	0.00309785
2	1	0	0	0	0	261.652	0.641649	0.641959	1.70078	3	0.294058	11	0	61.4088	0.00109183
2	1	0	1	0	0	274.154	0.579138	0.579458	0.186276	3	0.303876	11	0	73.9111	0.000107939
2	0	0	1	0	0	286.656	0.516627	0.516928	-0.0498614	3	0.304165	11	0	6.0012	-2.57748e-05
2	0	0	0	0	0	299.159	0.454116	0.454408	-0.075558	3	0.303342	11	0	18.5034	-3.43342e-05
2	1	0	0	0	1	311.534	0.507776	0.508133	0.0719951	4	0.304033	11	0	11.302	3.65831e-05
2	1	0	1	0	1	324.036	0.570287	0.570617	0.214517	4	0.305448	11	0	23.8042	0.000122407
2	1	0	0	0	1	336.538	0.632798	0.633083	1.45702	4	0.313983	11	0	36.3064	0.000922416
2	1	0	1	0	1	349.041	0.695309	0.695643	4.29704	4	0.348853	11	0	48.8086	0.0029892
2	1	0	0	0	1	361.341	0.64315	0.643426	1.70739	4	0.387421	11	0	61.1088	0.00109858
2	1	0	1	0	1	373.843	0.580638	0.580959	0.189727	4	0.397306	11	0	73.611	0.000110224
2	0	0	0	0	1	386.345	0.518127	0.518436	-0.049351	4	0.397618	11	0	5.901	-2.55853e-05
2	0	0	1	0	1	398.847	0.455616	0.455911	-0.0753173	4	0.396804	11	0	18.4033	-3.4338e-05
2	1	0	1	0	0	411.223	0.506275	0.506567	0.0699342	5	0.397442	11	0	11.0019	3.54263e-05
2	1	0	1	0	0	423.725	0.568786	0.569096	0.198422	5	0.398781	11	0	23.5042	0.000112921
2	1	0	0	0	0	436.227	0.631297	0.631623	1.37935	5	0.406757	11	0	36.0064	0.000871228
2	1	0	1	0	0	448.73	0.693809	0.69409	4.18483	5	0.440395	11	0	48.5086	0.00290464
2	1	0	0	0	0	461.03	0.64465	0.644922	1.74692	5	0.47932	11	0	60.8088	0.00112663
2	1	0	1	0	0	473.532	0.582139	0.582433	0.201382	5	0.489541	11	0	73.311	0.000117291
2	0	0	0	0	0	486.034	0.519628	0.519894	-0.0474368	5	0.489903	11	0	5.801	-2.46621e-05
2	0	0	1	0	0	498.536	0.457117	0.457411	-0.0749452	5	0.489099	11	0	18.3032	-3.42808e-05
2	1	0	1	0	1	510.912	0.504775	0.505082	0.0687665	6	0.489686	11	0	10.7018	3.47327e-05
2	1	0	0	0	1	523.414	0.567286	0.567571	0.184745	6	0.490964	11	0	23.204	0.000104856
2	1	0	1	0	1	535.916	0.629797	0.630039	1.30739	6	0.498442	11	0	35.7063	0.000823709
2	1	0	1	0	1	548.419	0.692308	0.692619	4.07311	6	0.530884	11	0	48.2086	0.00282111
2	1	0	0	0	1	560.719	0.64615	0.646421	1.79351	6	0.570288	11	0	60.5088	0.00115936
2	1	0	1	0	1	573.221	0.583639	0.584075	0.209751	6	0.580828	11	0	73.011	0.00012251
2	0	0	0	0	1	585.723	0.521128	0.52143	-0.0470691	6	0.581243	11	0	5.401	-2.45433e-05
2	0	0	1	0	1	598.225	0.458617	0.458935	-0.0739899	6	0.58045	11	0	17.9032	-3.39566e-05
2	1	0	1	0	0	610.601	0.503275	0.503576	0.0673117	7	0.580991	11	0	10.4018	3.38966e-05
2	1	0	0	0	0	623.103	0.565786	0.566119	0.173784	7	0.582218	11	0	22.904	9.83823e-05
2	1	0	1	0	0	635.605	0.628297	0.628624	1.24053	7	0.589245	11	0	35.4062	0.000779829
2	1	0	0	0	0	648.107	0.690808	0.691096	3.9691	7	0.620583	11	0	47.9084	0.00274303
2	1	0	1	0	0	660.408	0.64765	0.647938	1.84056	7	0.660345	11	0	60.2086	0.00119257
2	1	0	0	0	0	672.91	0.585139	0.585432	0.225415	7	0.671259	11	0	72.7108	0.000131965
2	0	0	1	0	0	685.412	0.522628	0.522959	-0.0454865	7	0.67174	11	0	5.201	-2.37876e-05
2	0	0	0	0	0	697.914	0.460117	0.460414	-0.0747978	7	0.670957	11	0	17.7032	-3.4438e-05
2	1	0	0	0	1	710.29	0.501774	0.502062	0.0663501	8	0.67145	11	0	10.1018	3.33119e-05
2	1	0	1	0	1	722.792	0.564286	0.564655	0.165431	8	0.672635	11	0	22.604	9.34114e-05
2	1	0	0	0	1	735.294	0.626797	0.6271	1.18441	8	0.679276	11	0	35.1062	0.000742743
2	1	0	1	0	1	747.796	0.689308	0.68965	3.8744	8	0.709614	11	0	47.6084	0.00267198
2	1	0	0	0	1	760.097	0.649151	0.649397	1.89246	8	0.749838	11	0	59.9086	0.00122896
2	1	0	1	0	1	772.599	0.58664	0.58692	0.241244	8	0.761212	11	0	72.4108	0.000141591
2	0	0	0	0	1	785.101	0.524128	0.524443	-0.0445441	8	0.761768	11	0	4.9008	-2.33609e-05
2	0	0	1	0	1	797.603	0.461617	0.461954	-0.0735505	8	0.760997	11	0	17.403	-3.3977e-05
2	1	0	1	0	0	809.979	0.500274	0.500599	0.0676453	9	0.761447	11	0	9.8017	3.38632e-05
2	1	0	1	0	0	822.481	0.562785	0.563126	0.155858	9	0.762595	11	0	22.304	8.77675e-05
2	1	0	0	0	0	834.983	0.625296	0.625575	1.12875	9	0.768875	11	0	34.8062	0.000706116
2	1	0	1	0	0	847.485	0.687808	0.688127	3.79053	9	0.798287	11	0	47.3084	0.00260837
2	1	0	0	0	0	859.786	0.650651	0.650955	1.94102	9	0.838988	11	0	59.6086	0.00126351
2	1	0	1	0	0	872.288	0.58814	0.588426	0.252945	9	0.850722	11	0	72.1108	0.00014884
2	0	0	0	0	0	884.79	0.525629	0.525951	-0.0438851	9	0.851338	11	0	4.7008	-2.30814e-05
2	0	0	1	0	0	897.292	0.463118	0.46339	-0.0710391	9	0.850577	11	0	17.203	-3.29188e-05
2	1	0	1	0	1	909.668	0.498774	0.49905	0.0658402	10	0.850983	11	0	9.5016	3.28576e-05
2	1	0	0	0	1	922.17	0.561285	0.561573	0.148909	10	0.852095	11	0	22.0038	8.36232e-05
2	1	0	1	0	1	934.672	0.623796	0.624117	1.0714	10	0.858022	11	0	34.506	0.000668681
2	1	0	1	0	1	947.174	0.686307	0.686615	3.68817	10	0.886418	11	0	47.0084	0.00253235
2	1	0	0	0	1	959.475	0.652151	0.652447	1.97784	10	0.927301	11	0	59.3086	0.00129044
2	1	0	1	0	1	971.977	0.58964	0.589971	0.26431	10	0.939323	11	0	71.8108	0.000155935
2	0	0	0	0	1	984.479	0.527129	0.527472	-0.0409652	10	0.939999	11	0	4.6008	-2.1608e-05
2	0	0	1	0	1	996.981	0.464618	0.464895	-0.0724531	10	0.939248	11	0	17.103	-3.3683e-05
2	1	0	1	0	0	1009.36	0.497274	0.497565	0.0666246	11	0.939613	11	0	9.2016	3.315e-05
2	1	0	0	0	0	1021.86	0.559785	0.560072	0.139899	11	0.940692	11	0	21.7038	7.83536e-05
2	1	0	1	0	0	1034.36	0.622296	0.622593	1.01883	11	0.946277	11	0	34.206	0.000634318
2	1	0	0	0	0	1046.86	0.684807	0.685053	3.59744	11	0.973725	11	0	46.7082	0.00246443
2	1	0	1	0	0	1059.16	0.653651	0.653892	2.03791	11	1.01496	11	0	59.0084	0.00133257
2	1	0	0	0	0	1071.67	0.59114	0.591428	0.28131	11	1.02747	11	0	71.5106	0.000166375
2	0	0	1	0	0	1084.17	0.52863	0.52891	-0.0398353	11	1.02823	11	0	4.2007	-2.10693e-05
2	0	0	1	0	0	1096.67	0.466118	0.466383	-0.0706964	11	1.02749	11	0	16.703	-3.29716e-05
2	1	0	1	0	1	1109.05	0.495773	0.496057	0.0666161	12	1.02781	11	0	8.9016	3.30454e-05
2	1	0	0	0	1	1121.55	0.558285	0.558588	0.132959	12	1.02887	11	0	21.4038	7.42691e-05
2	1	0	1	0	1	1134.05	0.620796	0.621076	0.967792	12	1.03414	11	0	33.906	0.000601073
2	1	0	0	0	1	1146.55	0.683307	0.683591	3.50937	12	1.06066	11	0	46.4082	0.00239897
2	1	0	1	0	1	1158.85	0.655152	0.655536	2.08761	12	1.10219	11	0	58.7084	0.00136851
2	1	0	0	0	1	1171.35	0.592641	0.59298	0.29716	12	1.11511	11	0	71.2106	0.00017621
2	0	0	1	0	1	1183.86	0.530129	0.530427	-0.037073	12	1.11595	11	0	3.9006	-1.96645e-05
2	0	0	0	0	1	1196.36	0.467618	0.467942	-0.0709661	12	1.11523	11	0	16.4028	-3.3208e-05
2	1	0	0	0	0	1208.73	0.494273	0.494576	0.0649298	13	1.11551	11	0	8.6014	3.21127e-05
2	1	0	1	0	0	1221.24	0.556784	0.557123	0.127343	13	1.11653	11	0	21.1037	7.09457e-05
2	1	0	1	0	0	1233.74	0.619295	0.619578	0.917679	13	1.1215	11	0	33.606	0.000568574
2	1	0	0	0	0	1246.24	0.681806	0.68212	3.41268	13	1.14708	11	0	46.1082	0.00232786
2	1	0	1	0	0	1258.54	0.656652	0.65696	2.14044	13	1.18879	11	0	58.4084	0.00140618
2	1	0	0	0	0	1271.04	0.594141	0.594395	0.315107	13	1.20217	11	0	70.9106	0.000187298
2	0	0	1	0	0	1283.55	0.53163	0.531913	-0.0376095	13	1.20309	11	0	3.7006	-2.0005e-05
2	0	0	0	0	0	1296.05	0.469119	0.469407	-0.0684428	13	1.20237	11	0	16.2028	-3.21275e-05
2	1	0	0	0	1	1308.42	0.492773	0.49311	0.0635919	14	1.20261	11	0	8.3014	3.13578e-05
2	1	0	1	0	1	1320.93	0.555284	0.55562	0.120753	14	1.20361	11	0	20.8036	6.70927e-05
2	1	0	0	0	1	1333.43	0.617795	0.618076	0.867461	14	1.20828	11	0	33.3058	0.000536157
2	1	0	1	0	1	1345.93	0.680306	0.680578	3.31569	14	1.23289	11	0	45.8081	0.00225659
2	1	0	1	0	1	1358.23	0.658152	0.658421	2.16254	14	1.27454	11	0	58.1083	0.00142386
2	1	0	0	0	1	1370.73	0.595641	0.596009	0.327233	14	1.28817	11	0	70.6106	0.000195033
2	0	0	1	0	1	1383.23	0.53313	0.533444	-0.0336377	14	1.28917	11	0	3.5006	-1.79438e-05
2	0	0	0	0	1	1395.74	0.470619	0.470916	-0.0689312	14	1.28846	11	0	16.0028	-3.24608e-05
2	1	0	0	0	0	1408.11	0.491273	0.491578	0.0640678	15	1.28866	11	0	8.0014	3.14944e-05
2	1	0	1	0	0	1420.61	0.553784	0.5541	0.117218	15	1.28963	11	0	20.5036	6.49507e-05
2	1	0	0	0	0	1433.12	0.616295	0.616614	0.821205	15	1.29404	11	0	33.0058	0.000506366
2	1	0	1	0	0	1445.62	0.678806	0.679053	3.23124	15	1.3178	11	0	45.508	0.00219418
2	1	0	0	0	0	1457.92	0.659653	0.659954	2.24107	15	1.3598	11	0	57.8082	0.001479
2	1	0	1	0	0	1470.42	0.597141	0.597472	0.343127	15	1.37398	11	0	70.3104	0.000205009
2	0	0	0	0	0	1482.92	0.53463	0.534927	-0.0327079	15	1.37506	11	0	3.3005	-1.74963e-05
2	0	0	1	0	0	1495.43	0.47212	0.472449	-0.0680249	15	1.37436	11	0	15.8028	-3.21383e-05
2	0	0	1	0	0	1499.84	0.44999	0.450295	-0.0814315	15	1.37404	11	0	20.2217	-3.66682e-05