File: ACS_Catal_2026/Figures_Na_K/main_figures/data/EC/20240126_2-102_Add_Na/20240125_2-102_007_preconditioning_elctrode3_02_PEIS_C01.mpt
EC-Lab ASCII FILE
Nb header lines : 63

Potentio Electrochemical Impedance Spectroscopy

Run on channel : 1 (SN 66412)
User :
CE vs. WE compliance from -10 V to 10 V
Electrode connection : standard
Potential control : Ewe
Ewe ctrl range : min = -1.00 V, max = 1.00 V
Safety Limits :
	Do not start on E overload
Acquisition started on : 01/26/2024 17:08:35.119
Loaded Setting File :  C:\Users\NakamuraT\Documents\EC-Lab\Data\Yatsuzuka\20240126_2-102_Add_Na\20240125_2-102_001_preconditioning_elctrode1.mps
Saved on :
	File : 20240125_2-102_007_preconditioning_elctrode3_02_PEIS_C01.mpr
	Directory : C:\Users\NakamuraT\Documents\EC-Lab\Data\Yatsuzuka\20240126_2-102_Add_Na\
	Host : 192.109.209.100
Device : SP-150e (SN .003411)
Address : 192.109.209.236
EC-Lab for windows v11.50 (software)
Internet server v11.50 (firmware)
Command interpretor v11.50 (firmware)
Electrode material :
Initial state :
Electrolyte :
Comments :
Electrode surface area : 0.001 cm2
Characteristic mass : 0.001 g
Equivalent Weight : 0.000 g/eq.
Density : 0.000 g/cm3
Volume (V) : 0.001 cm3
Cycle Definition : Charge/Discharge alternance
Mode                Single sine
E (V)               0.4000
vs.                 Eoc
tE (h:m:s)          0:00:0.0000
record              0
dI                  0.000
unit dI             mA
dt (s)              0.000
fi                  500.000
unit fi             kHz
ff                  1.000
unit ff             Hz
Nd                  6
Points              per decade
spacing             Logarithmic
Va (mV)             10.0
pw                  0.10
Na                  2
corr                0
E range min (V)     -1.000
E range max (V)     1.000
I Range             Auto
Bandwidth           5
nc cycles           0
goto Ns'            0
nr cycles           0
inc. cycle          0

freq/Hz	Re(Z)/Ohm	-Im(Z)/Ohm	|Z|/Ohm	Phase(Z)/deg	time/s	<Ewe>/V	<I>/mA	Cs/uF	Cp/uF	cycle number	I Range	|Ewe|/V	|I|/A	Ns	(Q-Qo)/mA.h	Re(Y)/Ohm-1	Im(Y)/Ohm-1	|Y|/Ohm-1	Phase(Y)/deg	Re(C)/nF	Im(C)/nF	|C|/nF	Phase(C)/deg	Re(M)	Im(M)	|M|	Phase(M)/deg	Re(Permittivity)	Im(Permittivity)	|Permittivity|	Phase(Permittivity)/deg	Re(Resistivity)/Ohm.cm	Im(Resistivity)/Ohm.cm	|Resistivity|/Ohm.cm	Phase(Resistivity)/deg	Re(Conductivity)/mS/cm	Im(Conductivity)/mS/cm	|Conductivity|/mS/cm	Phase(Conductivity)/deg	Tan(Delta)	Loss Angle(Delta)/deg	dq/mA.h
500019	24.4527	-3.88316	24.7591	9.02341	211.007	0.374288	0.0413581	-0.0819687	-0.00201628	1	10	0.0106492	0.000430113	0	4.93538e-05	0.0398894	-0.00633457	0.0403893	-9.02341	-2.01628	12.6967	12.8558	-99.0234	0.0000000E+000	0.0000000E+000	0.0000000E+000	99.0234	0.0000000E+000	0.0000000E+000	0.0000000E+000	-99.0234	0.0000000E+000	0.0000000E+000	0.0000000E+000	9.02341	0.0000000E+000	0.0000000E+000	0.0000000E+000	-9.02341	6.2971	80.9766	4.93538e-05
231063	14.2573	-2.20644	14.4271	8.79721	211.852	0.374172	-0.00795805	-0.312175	-0.00730176	1	10	0.0109693	0.000760329	0	5.10004e-05	0.0684988	-0.0106008	0.0693142	-8.79721	-7.30176	47.1817	47.7433	-98.7972	0.0000000E+000	0.0000000E+000	0.0000000E+000	98.7972	0.0000000E+000	0.0000000E+000	0.0000000E+000	-98.7972	0.0000000E+000	0.0000000E+000	0.0000000E+000	8.79721	0.0000000E+000	0.0000000E+000	0.0000000E+000	-8.79721	6.46169	81.2028	-4.22742e-07
106786	13.1036	-0.740436	13.1245	3.23413	212.833	0.374189	-0.0121041	-2.01288	-0.00640656	1	10	0.0107032	0.00081551	0	4.88446e-05	0.0760718	-0.00429853	0.0761932	-3.23413	-6.40656	113.378	113.559	-93.2341	0.0000000E+000	0.0000000E+000	0.0000000E+000	93.2341	0.0000000E+000	0.0000000E+000	0.0000000E+000	-93.2341	0.0000000E+000	0.0000000E+000	0.0000000E+000	3.23413	0.0000000E+000	0.0000000E+000	0.0000000E+000	-3.23413	17.6972	86.7659	-4.89295e-07
49352.4	12.9543	-0.303265	12.9578	1.34107	213.678	0.374192	-0.0114734	-10.6338	-0.00582466	1	10	0.0104847	0.000809143	0	4.6756e-05	0.0771523	-0.00180617	0.0771734	-1.34107	-5.82465	248.806	248.874	-91.3411	0.0000000E+000	0.0000000E+000	0.0000000E+000	91.3411	0.0000000E+000	0.0000000E+000	0.0000000E+000	-91.3411	0.0000000E+000	0.0000000E+000	0.0000000E+000	1.34107	0.0000000E+000	0.0000000E+000	0.0000000E+000	-1.34107	42.716	88.6589	-9.54618e-07
22806.6	12.9079	-0.13526	12.9086	0.600373	214.523	0.374194	-0.0130576	-51.5929	-0.00566462	1	10	0.0103376	0.000800831	0	4.57328e-05	0.0774634	-0.000811728	0.0774676	-0.600373	-5.66462	540.576	540.606	-90.6004	0.0000000E+000	0.0000000E+000	0.0000000E+000	90.6004	0.0000000E+000	0.0000000E+000	0.0000000E+000	-90.6004	0.0000000E+000	0.0000000E+000	0.0000000E+000	0.600373	0.0000000E+000	0.0000000E+000	0.0000000E+000	-0.600373	95.4302	89.3996	-1.52063e-07
10540.4	12.9078	-0.051362	12.9079	0.227987	215.367	0.374185	-0.0118597	-293.983	-0.00465474	1	10	0.0100956	0.000782129	0	4.32789e-05	0.0774714	-0.00030827	0.077472	-0.227987	-4.65478	1169.78	1169.79	-90.228	0.0000000E+000	0.0000000E+000	0.0000000E+000	90.228	0.0000000E+000	0.0000000E+000	0.0000000E+000	-90.228	0.0000000E+000	0.0000000E+000	0.0000000E+000	0.227987	0.0000000E+000	0.0000000E+000	0.0000000E+000	-0.227987	251.31	89.772	-9.27347e-07
4871.56	12.9007	-0.0232754	12.9007	0.103373	216.192	0.374218	-0.011229	-1403.64	-0.00456903	1	10	0.0109087	0.000845592	0	4.04852e-05	0.0775151	-0.000139853	0.0775153	-0.103373	-4.56892	2532.44	2532.44	-90.1034	0.0000000E+000	0.0000000E+000	0.0000000E+000	90.1034	0.0000000E+000	0.0000000E+000	0.0000000E+000	-90.1034	0.0000000E+000	0.0000000E+000	0.0000000E+000	0.103373	0.0000000E+000	0.0000000E+000	0.0000000E+000	-0.103373	554.261	89.8966	-9.32661e-07
2250.72	12.8992	-0.00536006	12.8992	0.0238083	217.343	0.37422	-0.0119045	-13192.6	-0.00227794	1	10	0.0102562	0.000795102	0	3.72965e-05	0.0775241	-3.22139e-05	0.0775241	-0.0238083	-2.27822	5481.95	5481.95	-90.0238	0.0000000E+000	0.0000000E+000	0.0000000E+000	90.0238	0.0000000E+000	0.0000000E+000	0.0000000E+000	-90.0238	0.0000000E+000	0.0000000E+000	0.0000000E+000	0.0238083	0.0000000E+000	0.0000000E+000	0.0000000E+000	-0.0238083	2406.54	89.9762	-2.04226e-06
1040.33	12.9054	0.00388087	12.9054	-0.0172298	218.273	0.374222	-0.0114193	39420.2	0.00356479	1	10	0.0103033	0.000798373	0	3.43581e-05	0.0774869	2.33016e-05	0.0774869	0.0172298	3.56424	11854.3	11854.3	-89.9828	0.0000000E+000	0.0000000E+000	0.0000000E+000	89.9828	0.0000000E+000	0.0000000E+000	0.0000000E+000	-89.9828	0.0000000E+000	0.0000000E+000	0.0000000E+000	-0.0172298	0.0000000E+000	0.0000000E+000	0.0000000E+000	0.0172298	3325.39	89.9828	-8.51273e-07
480.769	12.9055	0.018125	12.9056	-0.0804681	219.203	0.374214	-0.0120407	18264.4	0.0360253	1	10	0.0103111	0.000798966	0	3.04151e-05	0.0774859	0.000108824	0.077486	0.0804681	36.0249	25651.1	25651.1	-89.9195	0.0000000E+000	0.0000000E+000	0.0000000E+000	89.9195	0.0000000E+000	0.0000000E+000	0.0000000E+000	-89.9195	0.0000000E+000	0.0000000E+000	0.0000000E+000	-0.0804681	0.0000000E+000	0.0000000E+000	0.0000000E+000	0.0804681	712.03	89.9195	-1.94745e-06
222.061	12.9222	0.0462821	12.9223	-0.20521	220.127	0.374214	-0.0123112	15485.8	0.198648	1	10	0.0103266	0.000799135	0	2.74096e-05	0.0773852	0.000277163	0.0773857	0.20521	198.646	55463.4	55463.7	-89.7948	0.0000000E+000	0.0000000E+000	0.0000000E+000	89.7948	0.0000000E+000	0.0000000E+000	0.0000000E+000	-89.7948	0.0000000E+000	0.0000000E+000	0.0000000E+000	-0.20521	0.0000000E+000	0.0000000E+000	0.0000000E+000	0.20521	279.205	89.7948	-1.0088e-06
102.667	12.9156	0.0946893	12.916	-0.42005	221.064	0.374222	-0.0112047	16371.4	0.879905	1	10	0.0103201	0.000799024	0	2.44353e-05	0.0774216	0.000567607	0.0774236	0.42005	879.908	120019	120022	-89.5799	0.0000000E+000	0.0000000E+000	0.0000000E+000	89.5799	0.0000000E+000	0.0000000E+000	0.0000000E+000	-89.5799	0.0000000E+000	0.0000000E+000	0.0000000E+000	-0.42005	0.0000000E+000	0.0000000E+000	0.0000000E+000	0.42005	136.4	89.5799	-1.17317e-06
47.4443	12.9333	0.177552	12.9346	-0.786518	221.975	0.374204	-0.0144757	18893.5	3.56005	1	10	0.010323	0.000798092	0	2.22907e-05	0.0773049	0.00106126	0.0773122	0.786518	3560.07	259324	259349	-89.2135	0.0000000E+000	0.0000000E+000	0.0000000E+000	89.2135	0.0000000E+000	0.0000000E+000	0.0000000E+000	-89.2135	0.0000000E+000	0.0000000E+000	0.0000000E+000	-0.786518	0.0000000E+000	0.0000000E+000	0.0000000E+000	0.786518	72.8428	89.2135	-1.04923e-06
21.9144	12.9334	0.376428	12.9389	-1.66713	222.843	0.374201	-0.0149515	19293.3	16.3298	1	10	0.0103299	0.000798365	0	1.95249e-05	0.0772539	0.00224849	0.0772866	1.66713	16329.7	561061	561298	-88.3329	0.0000000E+000	0.0000000E+000	0.0000000E+000	88.3329	0.0000000E+000	0.0000000E+000	0.0000000E+000	-88.3329	0.0000000E+000	0.0000000E+000	0.0000000E+000	-1.66713	0.0000000E+000	0.0000000E+000	0.0000000E+000	1.66713	34.3582	88.3329	-3.72222e-07
10.1329	12.9402	0.820414	12.9662	-3.62771	224.02	0.37421	0.000132831	19144.8	76.6463	1	11	0.0103315	0.000796799	0	1.03297e-05	0.076969	0.00487986	0.0771236	3.62771	76646.3	1.20893e+06	1.21136e+06	-86.3723	0.0000000E+000	0.0000000E+000	0.0000000E+000	86.3723	0.0000000E+000	0.0000000E+000	0.0000000E+000	-86.3723	0.0000000E+000	0.0000000E+000	0.0000000E+000	-3.62771	0.0000000E+000	0.0000000E+000	0.0000000E+000	3.62771	15.7728	86.3723	-8.8942e-06
4.68375	12.9863	1.77468	13.107	-7.78171	224.87	0.374213	0.00616783	19147.2	351.026	1	11	0.0103358	0.000788573	0	1.51138e-05	0.0755925	0.0103303	0.0762951	7.78171	351026	2.56865e+06	2.59252e+06	-82.2183	0.0000000E+000	0.0000000E+000	0.0000000E+000	82.2183	0.0000000E+000	0.0000000E+000	0.0000000E+000	-82.2183	0.0000000E+000	0.0000000E+000	0.0000000E+000	-7.78171	0.0000000E+000	0.0000000E+000	0.0000000E+000	7.78171	7.31755	82.2183	-7.24508e-07
2.16533	13.1416	3.88266	13.7032	-16.4597	226.583	0.374226	-0.0034674	18930.7	1519.79	1	11	0.010335	0.000754207	0	5.3569e-06	0.0699853	0.020677	0.0729759	16.4597	1.51979e+06	5.14403e+06	5.36384e+06	-73.5403	0.0000000E+000	0.0000000E+000	0.0000000E+000	73.5403	0.0000000E+000	0.0000000E+000	0.0000000E+000	-73.5403	0.0000000E+000	0.0000000E+000	0.0000000E+000	-16.4597	0.0000000E+000	0.0000000E+000	0.0000000E+000	16.4597	3.38469	73.5403	1.55454e-06
1.00006	13.4151	8.04466	15.6423	-30.95	230.192	0.374228	0.00141199	19782.7	5232.4	1	11	0.01034	0.000661028	0	4.14208e-05	0.0548269	0.0328782	0.0639294	30.95	5.2324e+06	8.72541e+06	1.0174e+07	-59.05	0.0000000E+000	0.0000000E+000	0.0000000E+000	59.05	0.0000000E+000	0.0000000E+000	0.0000000E+000	-59.05	0.0000000E+000	0.0000000E+000	0.0000000E+000	-30.95	0.0000000E+000	0.0000000E+000	0.0000000E+000	30.95	1.66757	59.05	1.71362e-05