File: ACS_Catal_2026/Figures_Na_K/main_figures/data/EC/20240126_2-102_Add_Na/20240125_2-102_001_preconditioning_elctrode1_01_CVA_C01.mpt
EC-Lab ASCII FILE
Nb header lines : 66

Cyclic Voltammetry Advanced

Run on channel : 1 (SN 66412)
User :
CE vs. WE compliance from -10 V to 10 V
Electrode connection : standard
Potential control : Ewe
Ewe ctrl range : min = -1.00 V, max = 1.00 V
Safety Limits :
	Do not start on E overload
Acquisition started on : 01/26/2024 15:44:18.212
Loaded Setting File :  C:\Users\NakamuraT\Documents\EC-Lab\Data\Yatsuzuka\20240125_2-101_K_new_condition\20240125_2-101_001_preconditioning_EIS_elctrode1.mps
Saved on :
	File : 20240125_2-102_001_preconditioning_elctrode1_01_CVA_C01.mpr
	Directory : C:\Users\NakamuraT\Documents\EC-Lab\Data\Yatsuzuka\20240126_2-102_Add_Na\
	Host : 192.109.209.100
Device : SP-150e (SN .003411)
Address : 192.109.209.236
EC-Lab for windows v11.50 (software)
Internet server v11.50 (firmware)
Command interpretor v11.50 (firmware)
Electrode material :
Initial state :
Electrolyte :
Comments :
Electrode surface area : 0.001 cm2
Characteristic mass : 0.001 g
Equivalent Weight : 0.000 g/eq.
Density : 0.000 g/cm3
Volume (V) : 0.001 cm3
Cycle Definition : Charge/Discharge alternance
Ei (V)              0.350
vs.                 Ref
ti (h:m:s)          0:00:10.0000
dti (s)             1.0000
dE/dt               10.000
dE/dt unit          mV/s
E1 (V)              0.450
vs.                 Ref
t1 (h:m:s)          0:00:0.0000
dt1 (s)             0.1000
Step percent        50
N                   10
E range min (V)     -1.000
E range max (V)     1.000
I Range             Auto
I Range min         Unset
I Range max         Unset
I Range init        Unset
Bandwidth           5
E2 (V)              0.350
vs.                 Ref
t2 (h:m:s)          0:00:0.0000
dt2 (s)             0.1000
nc cycles           9
nr                  1
Reverse Scan        0
Ef (V)              0.000
vs.                 Eoc
tf (h:m:s)          0:00:0.0000
dtf (s)             0.1000

mode	ox/red	error	control changes	Ns changes	counter inc.	time/s	control/V	Ewe/V	<I>/mA	cycle number	(Q-Qo)/C	I Range	Ns	step time/s	P/W
2	1	0	0	0	0	0.000000000000000E+000	0.350023	0.350415	13.6085	1	0.0000000E+000	10	0	0.000000000000000E+000	0.00476864
2	1	0	1	0	0	11.1827	0.3618	0.362107	0.462957	1	0.0147048	12	0	10.1827	0.00016764
2	1	0	1	0	0	12.8829	0.378803	0.379045	0.486388	1	0.0155213	12	0	11.8829	0.000184363
2	1	0	1	0	0	14.5833	0.395806	0.396106	0.479258	1	0.0163438	12	0	13.5833	0.000189837
2	1	0	1	0	0	16.2835	0.412809	0.413121	0.475909	1	0.0171556	12	0	15.2835	0.000196608
2	1	0	1	0	0	17.9839	0.429812	0.430126	0.45959	1	0.0179509	12	0	16.9839	0.000197681
2	1	0	1	0	0	19.6841	0.446815	0.447107	0.454886	1	0.0187277	12	0	18.6841	0.000203383
2	0	0	1	0	0	21.3731	0.436263	0.436536	-0.101815	1	0.0189134	13	0	0.7152	-4.44459e-05
2	0	0	1	0	0	23.0883	0.41911	0.419417	-0.181284	1	0.0186562	12	0	2.4304	-7.60335e-05
2	0	0	1	0	0	24.7887	0.402107	0.402341	-0.233714	1	0.0183006	12	0	4.1308	-9.40327e-05
2	0	0	1	0	0	26.4889	0.385104	0.385372	-0.266663	1	0.0178753	12	0	5.831	-0.000102764
2	0	0	1	0	0	28.1893	0.368101	0.368368	-0.304588	1	0.0173885	12	0	7.5314	-0.0001122
2	0	0	1	0	0	29.8895	0.351098	0.351364	-0.336628	1	0.0168439	12	0	9.2316	-0.000118279
2	1	0	1	0	1	31.5249	0.3653	0.36559	0.339732	2	0.0170782	12	0	1.2002	0.000124203
2	1	0	1	0	1	33.2251	0.382303	0.382585	0.351612	2	0.0176765	12	0	2.9004	0.000134522
2	1	0	1	0	1	34.9255	0.399306	0.399552	0.34462	2	0.0182679	12	0	4.6008	0.000137694
2	1	0	1	0	1	36.6257	0.416309	0.416628	0.332974	2	0.0188441	12	0	6.301	0.000138727
2	1	0	1	0	1	38.3261	0.433312	0.433626	0.333849	2	0.0194099	12	0	8.0014	0.000144765
2	1	0	1	0	1	39.9926	0.44999	0.4503	0.341154	2	0.019965	12	0	9.6679	0.000153622
2	0	0	1	0	1	41.6703	0.433212	0.433547	-0.180052	2	0.019832	12	0	1.3002	-7.8061e-05
2	0	0	1	0	1	43.3707	0.416209	0.416537	-0.227763	2	0.0194827	12	0	3.0006	-9.48716e-05
2	0	0	1	0	1	45.0709	0.399206	0.39952	-0.254255	2	0.0190713	12	0	4.7008	-0.00010158
2	0	0	1	0	1	46.7713	0.382203	0.382443	-0.289295	2	0.0186089	12	0	6.4012	-0.000110639
2	0	0	1	0	1	48.4715	0.3652	0.365483	-0.314312	2	0.0180962	12	0	8.1014	-0.000114876
2	0	0	1	0	0	50.1169	0.351298	0.351611	-0.154778	3	0.0175644	12	0	9.7468	-5.44217e-05
2	1	0	1	0	0	51.8171	0.368301	0.368623	0.334505	3	0.0179462	12	0	1.5002	0.000123306
2	1	0	1	0	0	53.5175	0.385304	0.385566	0.328608	3	0.0185147	12	0	3.2006	0.0001267
2	1	0	1	0	0	55.2177	0.402307	0.402596	0.321781	3	0.019068	12	0	4.9008	0.000129548
2	1	0	1	0	0	56.9181	0.41931	0.419567	0.30798	3	0.0196028	12	0	6.6012	0.000129218
2	1	0	1	0	0	58.6183	0.436313	0.436593	0.305671	3	0.0201239	12	0	8.3014	0.000133454
2	1	0	1	0	0	60.2623	0.447215	0.447528	0.000936081	3	0.0205748	12	0	9.9454	4.18922e-07
2	0	0	1	0	0	61.9625	0.430212	0.43047	-0.202276	3	0.0203105	12	0	1.6502	-8.70737e-05
2	0	0	1	0	0	63.6629	0.413209	0.413497	-0.240109	3	0.0199315	12	0	3.3506	-9.92843e-05
2	0	0	1	0	0	65.3631	0.396206	0.396449	-0.265499	3	0.0195011	12	0	5.0508	-0.000105257
2	0	0	1	0	0	67.0635	0.379203	0.379487	-0.29402	3	0.0190249	12	0	6.7512	-0.000111577
2	0	0	1	0	0	68.7637	0.3622	0.362482	-0.324315	3	0.0185011	12	0	8.4514	-0.000117558
2	1	0	1	0	1	70.4091	0.354298	0.35457	0.105825	4	0.0180632	12	0	0.1	3.75225e-05
2	1	0	1	0	1	72.1093	0.371301	0.371618	0.324355	4	0.0185362	12	0	1.8002	0.000120536
2	1	0	1	0	1	73.8097	0.388304	0.388635	0.322296	4	0.0190886	12	0	3.5006	0.000125255
2	1	0	1	0	1	75.5099	0.405307	0.405626	0.305092	4	0.0196213	12	0	5.2008	0.000123753
2	1	0	1	0	1	77.2103	0.42231	0.422617	0.297231	4	0.0201341	12	0	6.9012	0.000125615
2	1	0	1	0	1	78.9105	0.439313	0.439601	0.290882	4	0.0206322	12	0	8.6014	0.000127872
2	0	0	1	0	1	80.5545	0.444214	0.444512	-0.120855	4	0.0209498	12	0	0.25	-5.37216e-05
2	0	0	1	0	1	82.2549	0.427211	0.427507	-0.216522	4	0.0206291	12	0	1.9504	-9.25647e-05
2	0	0	1	0	1	83.9551	0.410208	0.410507	-0.248963	4	0.0202341	12	0	3.6506	-0.000102201
2	0	0	1	0	1	85.6555	0.393205	0.393461	-0.269829	4	0.0197923	12	0	5.351	-0.000106167
2	0	0	1	0	1	87.3557	0.376202	0.376489	-0.301808	4	0.0193068	12	0	7.0512	-0.000113627
2	0	0	1	0	1	89.0561	0.359199	0.359476	-0.324501	4	0.0187745	12	0	8.7516	-0.000116651
2	1	0	1	0	0	90.7013	0.357299	0.357588	0.218239	5	0.0184856	12	0	0.4	7.80396e-05
2	1	0	1	0	0	92.4017	0.374302	0.374569	0.324981	5	0.0189982	12	0	2.1004	0.000121728
2	1	0	1	0	0	94.1019	0.391305	0.391631	0.309187	5	0.0195383	12	0	3.8006	0.000121087
2	1	0	1	0	0	95.8023	0.408308	0.408533	0.30005	5	0.0200565	12	0	5.501	0.00012258
2	1	0	1	0	0	97.5025	0.425311	0.425594	0.286535	5	0.0205544	12	0	7.2012	0.000121948
2	1	0	1	0	0	99.2029	0.442314	0.442603	0.282146	5	0.0210376	12	0	8.9016	0.000124879
2	0	0	1	0	0	100.907	0.440614	0.440853	-0.174878	5	0.0212012	12	0	0.66	-7.70953e-05
2	0	0	1	0	0	102.607	0.423611	0.423908	-0.228554	5	0.0208495	12	0	2.3604	-9.68859e-05
2	0	0	1	0	0	104.307	0.406608	0.406862	-0.250545	5	0.0204409	12	0	4.0606	-0.000101937
2	0	0	1	0	0	106.008	0.389605	0.389903	-0.280811	5	0.0199893	12	0	5.761	-0.000109489
2	0	0	1	0	0	107.708	0.372601	0.372836	-0.302581	5	0.0194946	12	0	7.4613	-0.000112813
2	0	0	1	0	0	109.408	0.355599	0.355907	-0.333077	5	0.0189531	12	0	9.1616	-0.000118544
2	1	0	1	0	1	111.043	0.360799	0.361064	0.279676	6	0.0188728	12	0	0.75	0.000100981
2	1	0	1	0	1	112.744	0.377803	0.378083	0.319272	6	0.0194027	12	0	2.4504	0.000120711
2	1	0	1	0	1	114.444	0.394806	0.395073	0.301658	6	0.0199321	12	0	4.1507	0.000119177
2	1	0	1	0	1	116.144	0.411809	0.412069	0.294842	6	0.0204384	12	0	5.851	0.000121495
2	1	0	1	0	1	117.845	0.428811	0.429119	0.279345	6	0.0209244	12	0	7.5513	0.000119872
2	1	0	1	0	1	119.545	0.445815	0.44608	0.274696	6	0.0213963	12	0	9.2516	0.000122537
2	0	0	1	0	1	121.189	0.437713	0.437963	-0.194895	6	0.0213992	12	0	0.9502	-8.53568e-05
2	0	0	1	0	1	122.889	0.42071	0.421018	-0.23359	6	0.0210315	12	0	2.6504	-9.83457e-05
2	0	0	1	0	1	124.59	0.403707	0.40399	-0.255544	6	0.0206141	12	0	4.3508	-0.000103237
2	0	0	1	0	1	126.29	0.386704	0.387002	-0.284564	6	0.0201557	12	0	6.051	-0.000110127
2	0	0	1	0	1	127.99	0.369701	0.370032	-0.305642	6	0.0196544	12	0	7.7514	-0.000113097
2	0	0	1	0	1	129.69	0.352698	0.352966	-0.338184	6	0.0191063	12	0	9.4516	-0.000119367
2	1	0	1	0	0	131.336	0.3638	0.364091	0.303209	7	0.0192109	12	0	1.0502	0.000110395
2	1	0	1	0	0	133.036	0.380803	0.381105	0.311175	7	0.0197434	12	0	2.7504	0.00011859
2	1	0	1	0	0	134.736	0.397806	0.39808	0.299244	7	0.0202633	12	0	4.4508	0.000119123
2	1	0	1	0	0	136.437	0.414809	0.415117	0.286228	7	0.0207597	12	0	6.151	0.000118818
2	1	0	1	0	0	138.137	0.431812	0.432117	0.273185	7	0.0212357	12	0	7.8514	0.000118048
2	1	0	1	0	0	139.837	0.448815	0.449087	0.27366	7	0.0216987	12	0	9.5516	0.000122897
2	0	0	1	0	0	141.481	0.434713	0.434972	-0.208753	7	0.0215545	12	0	1.2502	-9.08018e-05
2	0	0	1	0	0	143.181	0.41771	0.418	-0.234543	7	0.0211748	12	0	2.9504	-9.8039e-05
2	0	0	1	0	0	144.882	0.400707	0.400988	-0.263763	7	0.0207499	12	0	4.6508	-0.000105766
2	0	0	1	0	0	146.582	0.383703	0.383956	-0.284875	7	0.0202849	12	0	6.3511	-0.00010938
2	0	0	1	0	0	148.282	0.3667	0.367011	-0.311335	7	0.0197768	12	0	8.0514	-0.000114263
2	0	0	1	0	1	149.951	0.350023	0.350473	-0.337429	7	0.0192329	12	0	9.7195	-0.00011826
2	1	0	1	0	1	151.628	0.366801	0.367126	0.30889	8	0.0195191	12	0	1.3502	0.000113402
2	1	0	1	0	1	153.328	0.383803	0.384086	0.306387	8	0.0200492	12	0	3.0505	0.000117679
2	1	0	1	0	1	155.029	0.400807	0.4011	0.295415	8	0.0205604	12	0	4.7508	0.000118491
2	1	0	1	0	1	156.729	0.41781	0.418136	0.277818	8	0.0210485	12	0	6.4512	0.000116166
2	1	0	1	0	1	158.429	0.434813	0.435097	0.273219	8	0.0215163	12	0	8.1514	0.000118877
2	1	0	1	0	1	160.073	0.448715	0.449016	0.0868569	8	0.0219443	12	0	9.7954	3.90002e-05
2	0	0	1	0	1	161.773	0.431712	0.431971	-0.211391	8	0.0216808	12	0	1.5502	-9.13149e-05
2	0	0	1	0	1	163.474	0.414709	0.414993	-0.244064	8	0.0212915	12	0	3.2506	-0.000101285
2	0	0	1	0	1	165.174	0.397706	0.397969	-0.26361	8	0.0208599	12	0	4.9508	-0.000104909
2	0	0	1	0	1	166.874	0.380703	0.380974	-0.289898	8	0.0203881	12	0	6.6512	-0.000110443
2	0	0	1	0	1	168.575	0.3637	0.363997	-0.317337	8	0.0198734	12	0	8.3514	-0.00011551
2	0	0	1	0	0	170.22	0.352798	0.353072	0.00222207	9	0.0193853	12	0	9.9968	7.84551e-07
2	1	0	1	0	0	171.92	0.369801	0.370105	0.310596	9	0.0198032	12	0	1.6502	0.000114953
2	1	0	1	0	0	173.621	0.386804	0.387113	0.305139	9	0.0203287	12	0	3.3506	0.000118123
2	1	0	1	0	0	175.321	0.403807	0.404101	0.286426	9	0.0208321	12	0	5.0508	0.000115745
2	1	0	1	0	0	177.021	0.42081	0.421091	0.278609	9	0.0213123	12	0	6.7512	0.00011732
2	1	0	1	0	0	178.721	0.437813	0.4381	0.264293	9	0.0217731	12	0	8.4514	0.000115787
2	0	0	1	0	0	180.365	0.445715	0.445981	-0.09793	9	0.0221085	12	0	0.15	-4.36749e-05
2	0	0	1	0	0	182.066	0.428711	0.428952	-0.22352	9	0.0217851	12	0	1.8503	-9.58793e-05
2	0	0	1	0	0	183.766	0.411708	0.411987	-0.243524	9	0.0213877	12	0	3.5506	-0.000100329
2	0	0	1	0	0	185.466	0.394705	0.394996	-0.270697	9	0.0209492	12	0	5.251	-0.000106924
2	0	0	1	0	0	187.167	0.377702	0.378003	-0.293447	9	0.0204713	12	0	6.9512	-0.000110924
2	0	0	1	0	0	188.867	0.360699	0.360961	-0.319151	9	0.0199495	12	0	8.6516	-0.000115201
2	1	0	1	0	1	190.512	0.355799	0.356091	0.17208	10	0.0195883	12	0	0.25	6.12762e-05
2	1	0	1	0	1	192.213	0.372802	0.373058	0.311197	10	0.0200679	12	0	1.9504	0.000116095
2	1	0	1	0	1	193.913	0.389805	0.390074	0.297426	10	0.0205879	12	0	3.6506	0.000116018
2	1	0	1	0	1	195.613	0.406808	0.407073	0.28699	10	0.021084	12	0	5.351	0.000116826
2	1	0	1	0	1	197.313	0.423811	0.42407	0.269441	10	0.0215571	12	0	7.0512	0.000114262
2	1	0	1	0	1	199.014	0.440814	0.441088	0.265335	10	0.0220117	12	0	8.7516	0.000117036
2	0	0	1	0	1	200.658	0.442714	0.442972	-0.167549	10	0.0222227	12	0	0.45	-7.42195e-05
2	0	0	1	0	1	202.358	0.425711	0.426033	-0.221879	10	0.0218726	12	0	2.1504	-9.45279e-05
2	0	0	1	0	1	204.058	0.408708	0.408968	-0.253113	10	0.0214677	12	0	3.8506	-0.000103515
2	0	0	1	0	1	205.759	0.391705	0.392007	-0.271087	10	0.0210234	12	0	5.551	-0.000106268
2	0	0	1	0	1	207.459	0.374702	0.374999	-0.29779	10	0.020539	12	0	7.2512	-0.000111671
2	0	0	1	0	1	209.159	0.357699	0.357946	-0.325478	10	0.0200105	12	0	8.9516	-0.000116504
2	0	0	1	0	1	209.927	0.350023	0.350205	-0.335835	10	0.0197564	12	0	9.7191	-0.000117611