File: ACS_Catal_2026/Figures_Na_K/main_figures/data/EC/20240126_2-102_Add_Na/20240201_2-102_014_preconditioning_elctrode6_02_PEIS_C02.mpt
EC-Lab ASCII FILE
Nb header lines : 63

Potentio Electrochemical Impedance Spectroscopy

Run on channel : 2 (SN 66414)
User :
CE vs. WE compliance from -10 V to 10 V
Electrode connection : standard
Potential control : Ewe
Ewe ctrl range : min = -1.00 V, max = 1.00 V
Safety Limits :
	Do not start on E overload
Acquisition started on : 02/01/2024 14:41:57.621
Loaded Setting File :  C:\Users\NakamuraT\Documents\EC-Lab\Data\Yatsuzuka\20240126_2-102_Add_Na\20240125_2-102_001_preconditioning_elctrode1.mps
Saved on :
	File : 20240201_2-102_014_preconditioning_elctrode6_02_PEIS_C02.mpr
	Directory : C:\Users\NakamuraT\Documents\EC-Lab\Data\Yatsuzuka\20240126_2-102_Add_Na\
	Host : 192.109.209.100
Device : SP-150e (SN .003411)
Address : 192.109.209.236
EC-Lab for windows v11.50 (software)
Internet server v11.50 (firmware)
Command interpretor v11.50 (firmware)
Electrode material :
Initial state :
Electrolyte :
Comments :
Electrode surface area : 0.001 cm2
Characteristic mass : 0.001 g
Equivalent Weight : 0.000 g/eq.
Density : 0.000 g/cm3
Volume (V) : 0.001 cm3
Cycle Definition : Charge/Discharge alternance
Mode                Single sine
E (V)               0.4000
vs.                 Eoc
tE (h:m:s)          0:00:0.0000
record              0
dI                  0.000
unit dI             mA
dt (s)              0.000
fi                  500.000
unit fi             kHz
ff                  1.000
unit ff             Hz
Nd                  6
Points              per decade
spacing             Logarithmic
Va (mV)             10.0
pw                  0.10
Na                  2
corr                0
E range min (V)     -1.000
E range max (V)     1.000
I Range             Auto
Bandwidth           5
nc cycles           0
goto Ns'            0
nr cycles           0
inc. cycle          0

freq/Hz	Re(Z)/Ohm	-Im(Z)/Ohm	|Z|/Ohm	Phase(Z)/deg	time/s	<Ewe>/V	<I>/mA	Cs/uF	Cp/uF	cycle number	I Range	|Ewe|/V	|I|/A	Ns	(Q-Qo)/mA.h	Re(Y)/Ohm-1	Im(Y)/Ohm-1	|Y|/Ohm-1	Phase(Y)/deg	Re(C)/nF	Im(C)/nF	|C|/nF	Phase(C)/deg	Re(M)	Im(M)	|M|	Phase(M)/deg	Re(Permittivity)	Im(Permittivity)	|Permittivity|	Phase(Permittivity)/deg	Re(Resistivity)/Ohm.cm	Im(Resistivity)/Ohm.cm	|Resistivity|/Ohm.cm	Phase(Resistivity)/deg	Re(Conductivity)/mS/cm	Im(Conductivity)/mS/cm	|Conductivity|/mS/cm	Phase(Conductivity)/deg	Tan(Delta)	Loss Angle(Delta)/deg	dq/mA.h
500019	23.3438	-4.91079	23.8548	11.88	211.053	0.379407	0.168857	-0.064816	-0.00274685	1	10	0.0095722	0.00040127	0	0.000101105	0.0410225	-0.00862982	0.0419204	-11.88	-2.74685	13.0574	13.3432	-101.88	0.0000000E+000	0.0000000E+000	0.0000000E+000	101.88	0.0000000E+000	0.0000000E+000	0.0000000E+000	-101.88	0.0000000E+000	0.0000000E+000	0.0000000E+000	11.88	0.0000000E+000	0.0000000E+000	0.0000000E+000	-11.88	4.75357	78.12	0.000101105
231063	14.1734	-2.02446	14.3173	8.12885	211.897	0.379257	0.0216159	-0.340238	-0.00680267	1	10	0.0109525	0.000764986	0	0.000113768	0.069144	-0.00987618	0.0698458	-8.12885	-6.80267	47.6261	48.1095	-98.1289	0.0000000E+000	0.0000000E+000	0.0000000E+000	98.1289	0.0000000E+000	0.0000000E+000	0.0000000E+000	-98.1289	0.0000000E+000	0.0000000E+000	0.0000000E+000	8.12885	0.0000000E+000	0.0000000E+000	0.0000000E+000	-8.12885	7.00109	81.8711	3.74358e-06
106786	13.1901	-0.641923	13.2057	2.78622	212.877	0.379282	0.0027305	-2.32179	-0.00548613	1	10	0.0106907	0.00080955	0	0.000117543	0.0756355	-0.00368096	0.075725	-2.78622	-5.48613	112.728	112.861	-92.7862	0.0000000E+000	0.0000000E+000	0.0000000E+000	92.7862	0.0000000E+000	0.0000000E+000	0.0000000E+000	-92.7862	0.0000000E+000	0.0000000E+000	0.0000000E+000	2.78622	0.0000000E+000	0.0000000E+000	0.0000000E+000	-2.78622	20.5478	87.2138	3.21308e-07
49352.4	13.0489	-0.249343	13.0513	1.09469	213.721	0.379295	0.000654736	-12.9335	-0.00472063	1	10	0.0104676	0.000802033	0	0.000117336	0.0766066	-0.00146382	0.0766205	-1.09469	-4.72062	247.046	247.091	-91.0947	0.0000000E+000	0.0000000E+000	0.0000000E+000	91.0947	0.0000000E+000	0.0000000E+000	0.0000000E+000	-91.0947	0.0000000E+000	0.0000000E+000	0.0000000E+000	1.09469	0.0000000E+000	0.0000000E+000	0.0000000E+000	-1.09469	52.3333	88.9053	1.99512e-07
22806.6	13.013	-0.109686	13.0135	0.482932	214.565	0.37929	0.000721937	-63.6222	-0.00451986	1	10	0.0103865	0.000798135	0	0.000116068	0.0768406	-0.000647686	0.0768433	-0.482932	-4.51987	536.23	536.249	-90.4829	0.0000000E+000	0.0000000E+000	0.0000000E+000	90.4829	0.0000000E+000	0.0000000E+000	0.0000000E+000	-90.4829	0.0000000E+000	0.0000000E+000	0.0000000E+000	0.482932	0.0000000E+000	0.0000000E+000	0.0000000E+000	-0.482932	118.639	89.5171	-5.98661e-07
10540.4	12.9637	0.0152155	12.9637	-0.0672483	215.41	0.379287	0.00022726	992.376	0.00136708	1	10	0.0101501	0.000782961	0	0.000116729	0.0771385	9.05378e-05	0.0771385	0.0672483	1.36702	1164.76	1164.76	-89.9328	0.0000000E+000	0.0000000E+000	0.0000000E+000	89.9328	0.0000000E+000	0.0000000E+000	0.0000000E+000	-89.9328	0.0000000E+000	0.0000000E+000	0.0000000E+000	-0.0672483	0.0000000E+000	0.0000000E+000	0.0000000E+000	0.0672483	852.003	89.9328	-5.16613e-07
4871.56	12.9596	-0.0232974	12.9596	0.103	216.457	0.379313	-8.82123e-05	-1402.31	-0.00453183	1	10	0.010121	0.000780959	0	0.000116221	0.0771625	-0.000138714	0.0771626	-0.103	-4.53169	2520.91	2520.92	-90.103	0.0000000E+000	0.0000000E+000	0.0000000E+000	90.103	0.0000000E+000	0.0000000E+000	0.0000000E+000	-90.103	0.0000000E+000	0.0000000E+000	0.0000000E+000	0.103	0.0000000E+000	0.0000000E+000	0.0000000E+000	-0.103	556.268	89.897	-8.08727e-07
2250.72	12.9413	-0.0103513	12.9413	0.0458286	217.386	0.37931	-0.00027488	-6831.33	-0.00437053	1	10	0.010332	0.000798371	0	0.000116414	0.0772718	-6.18067e-05	0.0772718	-0.0458286	-4.37064	5464.11	5464.11	-90.0458	0.0000000E+000	0.0000000E+000	0.0000000E+000	90.0458	0.0000000E+000	0.0000000E+000	0.0000000E+000	-90.0458	0.0000000E+000	0.0000000E+000	0.0000000E+000	0.0458286	0.0000000E+000	0.0000000E+000	0.0000000E+000	-0.0458286	1250.22	89.9542	7.88643e-08
1040.33	12.9236	0.000395167	12.9236	-0.00175194	218.316	0.379312	-0.00070982	387139	0.000361961	1	10	0.0103844	0.00080352	0	0.000115924	0.0773779	2.366e-06	0.0773779	0.00175194	0.362543	11837.6	11837.6	-89.9982	0.0000000E+000	0.0000000E+000	0.0000000E+000	89.9982	0.0000000E+000	0.0000000E+000	0.0000000E+000	-89.9982	0.0000000E+000	0.0000000E+000	0.0000000E+000	-0.00175194	0.0000000E+000	0.0000000E+000	0.0000000E+000	0.00175194	32704.1	89.9982	-2.09355e-07
480.769	12.9097	0.00770401	12.9097	-0.0341919	219.246	0.379309	-0.00133516	42970.1	0.0153027	1	10	0.0103969	0.000805357	0	0.000115404	0.0774612	4.62259e-05	0.0774612	0.0341919	15.3041	25642.9	25642.9	-89.9658	0.0000000E+000	0.0000000E+000	0.0000000E+000	89.9658	0.0000000E+000	0.0000000E+000	0.0000000E+000	-89.9658	0.0000000E+000	0.0000000E+000	0.0000000E+000	-0.0341919	0.0000000E+000	0.0000000E+000	0.0000000E+000	0.0341919	1675.71	89.9658	-1.70914e-07
222.061	12.9058	0.0276272	12.9059	-0.122651	220.17	0.379298	-0.000741555	25942.5	0.118881	1	10	0.0104072	0.000806397	0	0.000115479	0.077484	0.000165868	0.0774842	0.122651	118.879	55534.2	55534.3	-89.8774	0.0000000E+000	0.0000000E+000	0.0000000E+000	89.8774	0.0000000E+000	0.0000000E+000	0.0000000E+000	-89.8774	0.0000000E+000	0.0000000E+000	0.0000000E+000	-0.122651	0.0000000E+000	0.0000000E+000	0.0000000E+000	0.122651	467.143	89.8774	6.76003e-07
102.667	12.9017	0.0659077	12.9018	-0.292691	221.107	0.379312	-0.000903957	23520.8	0.61379	1	10	0.0104069	0.000806621	0	0.000114387	0.0775073	0.000395943	0.0775083	0.292691	613.798	120152	120153	-89.7073	0.0000000E+000	0.0000000E+000	0.0000000E+000	89.7073	0.0000000E+000	0.0000000E+000	0.0000000E+000	-89.7073	0.0000000E+000	0.0000000E+000	0.0000000E+000	-0.292691	0.0000000E+000	0.0000000E+000	0.0000000E+000	0.292691	195.754	89.7073	-5.15626e-07
47.4443	12.9042	0.121999	12.9047	-0.541673	222.019	0.379297	-0.00269412	27496.6	2.45751	1	10	0.0104104	0.000806709	0	0.00011375	0.0774874	0.000732586	0.0774909	0.541673	2457.5	259936	259948	-89.4583	0.0000000E+000	0.0000000E+000	0.0000000E+000	89.4583	0.0000000E+000	0.0000000E+000	0.0000000E+000	-89.4583	0.0000000E+000	0.0000000E+000	0.0000000E+000	-0.541673	0.0000000E+000	0.0000000E+000	0.0000000E+000	0.541673	105.772	89.4583	-5.82565e-07
21.9144	12.9244	0.256777	12.9269	-1.13818	222.887	0.379288	0.000652869	28283.6	11.1597	1	10	0.0104125	0.000805487	0	0.000111727	0.0773425	0.00153661	0.0773578	1.13818	11159.7	561705	561816	-88.8618	0.0000000E+000	0.0000000E+000	0.0000000E+000	88.8618	0.0000000E+000	0.0000000E+000	0.0000000E+000	-88.8618	0.0000000E+000	0.0000000E+000	0.0000000E+000	-1.13818	0.0000000E+000	0.0000000E+000	0.0000000E+000	1.13818	50.3332	88.8618	-1.19247e-06
10.1329	12.9477	0.584303	12.9609	-2.58388	224.064	0.3793	8.07323e-05	26881.1	54.6324	1	11	0.0104213	0.000804056	0	0.000109762	0.0770766	0.00347829	0.077155	2.58388	54632.4	1.21062e+06	1.21185e+06	-87.4161	0.0000000E+000	0.0000000E+000	0.0000000E+000	87.4161	0.0000000E+000	0.0000000E+000	0.0000000E+000	-87.4161	0.0000000E+000	0.0000000E+000	0.0000000E+000	-2.58388	0.0000000E+000	0.0000000E+000	0.0000000E+000	2.58388	22.1593	87.4161	-2.95301e-06
4.68375	12.95	1.26918	13.0121	-5.59748	224.914	0.379308	0.00796366	26773.3	254.718	1	11	0.0104196	0.000800768	0	0.000108715	0.0764853	0.00749606	0.0768518	5.59748	254718	2.59899e+06	2.61144e+06	-84.4025	0.0000000E+000	0.0000000E+000	0.0000000E+000	84.4025	0.0000000E+000	0.0000000E+000	0.0000000E+000	-84.4025	0.0000000E+000	0.0000000E+000	0.0000000E+000	-5.59748	0.0000000E+000	0.0000000E+000	0.0000000E+000	5.59748	10.2034	84.4025	-9.42013e-06
2.16533	12.9527	2.75224	13.2419	-11.996	226.627	0.37932	-0.000928016	26706	1153.68	1	11	0.0104219	0.00078704	0	0.000120668	0.0738688	0.015696	0.075518	11.996	1.15368e+06	5.42947e+06	5.55069e+06	-78.004	0.0000000E+000	0.0000000E+000	0.0000000E+000	78.004	0.0000000E+000	0.0000000E+000	0.0000000E+000	-78.004	0.0000000E+000	0.0000000E+000	0.0000000E+000	-11.996	0.0000000E+000	0.0000000E+000	0.0000000E+000	11.996	4.70623	78.004	1.42948e-05
1.00006	13.1604	5.91378	14.4281	-24.1973	230.237	0.379323	0.00452015	26910.8	4521.06	1	11	0.0104246	0.000722523	0	0.000132666	0.0632197	0.0284084	0.0693093	24.1973	4.52106e+06	1.00611e+07	1.10302e+07	-65.8027	0.0000000E+000	0.0000000E+000	0.0000000E+000	65.8027	0.0000000E+000	0.0000000E+000	0.0000000E+000	-65.8027	0.0000000E+000	0.0000000E+000	0.0000000E+000	-24.1973	0.0000000E+000	0.0000000E+000	0.0000000E+000	24.1973	2.22538	65.8027	-3.98603e-06