File: ACS_Catal_2026/Figures_Na_K/main_figures/data/EC/20240126_2-102_Add_Na/20240125_2-102_010_K_elctrode4_C02.mpt
EC-Lab ASCII FILE
Nb header lines : 66

Cyclic Voltammetry Advanced

Run on channel : 2 (SN 66414)
User :
CE vs. WE compliance from -10 V to 10 V
Electrode connection : standard
Potential control : Ewe
Ewe ctrl range : min = -1.00 V, max = 1.00 V
Safety Limits :
	Do not start on E overload
Acquisition started on : 01/26/2024 17:20:27.256
Loaded Setting File :  C:\Users\NakamuraT\Documents\EC-Lab\Data\Yatsuzuka\20240126_2-102_Add_Na\20240125_2-102_003_K_elctrode1.mps
Saved on :
	File : 20240125_2-102_010_K_elctrode4_C02.mpr
	Directory : C:\Users\NakamuraT\Documents\EC-Lab\Data\Yatsuzuka\20240126_2-102_Add_Na\
	Host : 192.109.209.100
Device : SP-150e (SN .003411)
Address : 192.109.209.236
EC-Lab for windows v11.50 (software)
Internet server v11.50 (firmware)
Command interpretor v11.50 (firmware)
Electrode material :
Initial state :
Electrolyte :
Comments :
Electrode surface area : 0.001 cm2
Characteristic mass : 0.001 g
Equivalent Weight : 0.000 g/eq.
Density : 0.000 g/cm3
Volume (V) : 0.001 cm3
Cycle Definition : Charge/Discharge alternance
Ei (V)              0.450
vs.                 Ref
ti (h:m:s)          0:00:10.0000
dti (s)             0.0000
dE/dt               5.000
dE/dt unit          mV/s
E1 (V)              0.700
vs.                 Ref
t1 (h:m:s)          0:00:0.0000
dt1 (s)             0.1000
Step percent        50
N                   10
E range min (V)     -1.000
E range max (V)     1.000
I Range             10 mA
I Range min         Unset
I Range max         Unset
I Range init        Unset
Bandwidth           5
E2 (V)              0.450
vs.                 Ref
t2 (h:m:s)          0:00:0.0000
dt2 (s)             0.1000
nc cycles           14
nr                  1
Reverse Scan        0
Ef (V)              0.000
vs.                 Eoc
tf (h:m:s)          0:00:0.0000
dtf (s)             0.1000

mode	ox/red	error	control changes	Ns changes	counter inc.	time/s	control/V	Ewe/V	<I>/mA	cycle number	(Q-Qo)/C	I Range	Ns	step time/s	P/W
2	1	0	0	0	0	0.000000000000000E+000	0.449961	0.450369	0.00709824	1	0.0000000E+000	11	0	0.000000000000000E+000	3.19683e-06
2	1	0	1	0	0	12.2565	0.511244	0.511606	0.269687	1	0.00216176	11	0	12.2015	0.000137974
2	1	0	1	0	0	24.5581	0.572752	0.573089	1.30091	1	0.0100592	11	0	24.5031	0.000745539
2	1	0	1	0	0	36.8596	0.63426	0.63461	4.23803	1	0.0425101	11	0	36.8046	0.00268949
2	1	0	1	0	0	49.1612	0.695768	0.696156	8.23037	1	0.118746	11	0	49.1062	0.00572962
2	1	0	0	0	0	61.269	0.643661	0.644113	4.54087	1	0.198529	11	0	61.214	0.00292483
2	1	0	0	0	0	73.5706	0.582153	0.582458	1.30575	1	0.232741	11	0	73.5156	0.000760544
2	1	0	0	0	0	85.8722	0.520645	0.520896	0.047107	1	0.239008	11	0	85.8172	2.45379e-05
2	0	0	0	0	0	98.1738	0.459137	0.459522	-0.098613	1	0.238365	11	0	10.5013	-4.53149e-05
2	1	0	0	0	1	110.353	0.501793	0.502093	0.144937	2	0.239329	11	0	10.1012	7.27721e-05
2	1	0	0	0	1	122.654	0.563301	0.563584	0.81048	2	0.243738	11	0	22.4028	0.000456774
2	1	0	0	0	1	134.956	0.624809	0.625141	3.45947	2	0.268004	11	0	34.7044	0.00216265
2	1	0	0	0	1	147.258	0.686317	0.686664	7.34734	2	0.334045	11	0	47.006	0.00504516
2	1	0	1	0	1	159.355	0.653162	0.65353	5.02107	2	0.417426	11	0	59.1038	0.00328142
2	1	0	1	0	1	171.657	0.591654	0.591886	1.62079	2	0.456865	11	0	71.4054	0.000959324
2	1	0	1	0	1	183.959	0.530146	0.530426	0.105353	2	0.465288	11	0	83.707	5.58817e-05
2	0	0	1	0	1	196.26	0.468639	0.468874	-0.089706	2	0.464903	11	0	8.9012	-4.20608e-05
2	1	0	1	0	0	208.439	0.492292	0.492585	0.121702	3	0.465392	11	0	8.201	5.99487e-05
2	1	0	1	0	0	220.741	0.553799	0.554173	0.563664	3	0.468543	11	0	20.5026	0.000312368
2	1	0	1	0	0	233.042	0.615307	0.615643	2.85933	3	0.487367	11	0	32.8042	0.00176033
2	1	0	1	0	0	245.344	0.676815	0.677156	6.62076	3	0.545011	11	0	45.1058	0.00448328
2	1	0	0	0	0	257.442	0.662664	0.662929	5.58201	3	0.631026	11	0	57.2036	0.00370048
2	1	0	0	0	0	269.743	0.601156	0.601419	2.00155	3	0.676503	11	0	69.5052	0.00120377
2	1	0	0	0	0	282.045	0.539648	0.54004	0.194519	3	0.687764	11	0	81.8068	0.000105048
2	0	0	0	0	0	294.347	0.47814	0.478522	-0.0860932	3	0.687792	11	0	7.201	-4.11975e-05
2	1	0	0	0	1	306.526	0.48279	0.483076	0.112766	4	0.68788	11	0	6.3008	5.44745e-05
2	1	0	0	0	1	318.827	0.544298	0.544599	0.398529	4	0.690265	11	0	18.6024	0.000217038
2	1	0	0	0	1	331.129	0.605806	0.606117	2.33348	4	0.704714	11	0	30.904	0.00141436
2	1	0	0	0	1	343.43	0.667314	0.66739	5.94545	4	0.754574	11	0	43.2056	0.00396793
2	1	0	1	0	1	355.528	0.672165	0.67254	6.17969	4	0.840494	11	0	55.3034	0.00415609
2	1	0	1	0	1	367.83	0.610657	0.610971	2.41466	4	0.892364	11	0	67.605	0.00147529
2	1	0	1	0	1	380.131	0.549149	0.549498	0.321364	4	0.907002	11	0	79.9066	0.000176589
2	0	0	1	0	1	392.433	0.487641	0.487946	-0.074634	4	0.90762	11	0	5.4008	-3.64174e-05
2	1	0	1	0	0	404.612	0.473289	0.473617	0.105225	5	0.907353	11	0	4.4006	4.98362e-05
2	1	0	1	0	0	416.913	0.534797	0.535132	0.285253	5	0.909254	11	0	16.7021	0.000152648
2	1	0	1	0	0	429.215	0.596305	0.5966	1.85448	5	0.920106	11	0	29.0037	0.00110638
2	1	0	1	0	0	441.517	0.657813	0.658092	5.3075	5	0.962842	11	0	41.3053	0.00349283
2	1	0	1	0	0	453.614	0.681666	0.681925	6.75935	5	1.04697	11	0	53.403	0.00460937
2	1	0	1	0	0	465.916	0.620158	0.620554	2.91962	5	1.10544	11	0	65.7046	0.00181178
2	1	0	1	0	0	478.218	0.55865	0.558888	0.493306	5	1.12427	11	0	78.0062	0.000275703
2	0	0	1	0	0	490.519	0.497142	0.497458	-0.0583816	5	1.12575	11	0	3.6004	-2.90424e-05
2	1	0	1	0	1	502.698	0.463788	0.464033	0.100692	6	1.12516	11	0	2.5002	4.67244e-05
2	1	0	1	0	1	515	0.525296	0.525588	0.209027	6	1.12676	11	0	14.8018	0.000109862
2	1	0	1	0	1	527.301	0.586804	0.587173	1.44054	6	1.1348	11	0	27.1034	0.000845845
2	1	0	1	0	1	539.603	0.648312	0.648651	4.647	6	1.17072	11	0	39.405	0.00301428
2	1	0	0	0	1	551.701	0.691167	0.69152	7.39201	6	1.24976	11	0	51.5028	0.00511172
2	1	0	0	0	1	564.002	0.629659	0.629996	3.36772	6	1.31495	11	0	63.8044	0.00212165
2	1	0	0	0	1	576.304	0.568151	0.568485	0.709035	6	1.33801	11	0	76.106	0.000403076
2	0	0	0	0	1	588.606	0.506643	0.506946	-0.0337611	6	1.34063	11	0	1.8002	-1.71151e-05
2	1	0	0	0	0	600.785	0.454287	0.4546	0.0891137	7	1.33978	11	0	0.6	4.0511e-05
2	1	0	0	0	0	613.086	0.515795	0.516122	0.163342	7	1.34119	11	0	12.9016	8.43044e-05
2	1	0	0	0	0	625.388	0.577302	0.577682	1.08533	7	1.34705	11	0	25.2032	0.000626973
2	1	0	0	0	0	637.689	0.63881	0.639114	4.06245	7	1.37691	11	0	37.5048	0.00259637
2	1	0	1	0	0	649.922	0.699994	0.700289	8.12543	7	1.45092	11	0	49.7376	0.00569015
2	1	0	1	0	0	662.089	0.639161	0.639531	3.93878	7	1.52342	11	0	61.9042	0.00251897
2	1	0	1	0	0	674.39	0.577653	0.577937	0.971907	7	1.55183	11	0	74.2058	0.000561701
2	0	0	1	0	0	686.692	0.516145	0.516421	-0.000966889	7	1.55598	11	0	0.000000000000000E+000	-4.99322e-07
2	0	0	1	0	0	698.994	0.454637	0.454954	-0.099424	7	1.55515	11	0	12.2016	-4.52333e-05
2	1	0	1	0	1	711.173	0.506293	0.506651	0.134237	8	1.55621	11	0	11.0014	6.80112e-05
2	1	0	1	0	1	723.474	0.567801	0.568109	0.796814	8	1.5605	11	0	23.303	0.000452678
2	1	0	1	0	1	735.776	0.629309	0.629665	3.46202	8	1.58466	11	0	35.6046	0.00217991
2	1	0	1	0	1	748.077	0.690817	0.691138	7.41035	8	1.65091	11	0	47.9062	0.00512157
2	1	0	0	0	1	760.175	0.648662	0.648944	4.50099	8	1.72851	11	0	60.004	0.00292089
2	1	0	0	0	1	772.477	0.587154	0.587513	1.29445	8	1.76256	11	0	72.3056	0.000760505
2	1	0	0	0	1	784.778	0.525646	0.525882	0.0461414	8	1.76875	11	0	84.6072	2.42649e-05
2	0	0	0	0	1	797.08	0.464138	0.464492	-0.0947839	8	1.76814	11	0	10.4014	-4.40263e-05
2	1	0	0	0	0	809.259	0.496792	0.497073	0.118298	9	1.76877	11	0	9.1012	5.88026e-05
2	1	0	0	0	0	821.561	0.5583	0.558633	0.573237	9	1.77195	11	0	21.4028	0.000320229
2	1	0	0	0	0	833.862	0.619808	0.620054	2.9048	9	1.79114	11	0	33.7044	0.00180113
2	1	0	0	0	0	846.164	0.681316	0.681605	6.73558	9	1.84951	11	0	46.006	0.004591
2	1	0	1	0	0	858.261	0.658163	0.658419	5.05689	9	1.93139	11	0	58.1037	0.00332955
2	1	0	1	0	0	870.563	0.596655	0.596871	1.64212	9	1.97147	11	0	70.4053	0.000980133
2	1	0	0	0	0	882.865	0.535147	0.535459	0.11517	9	1.98007	11	0	82.7068	6.16687e-05
2	0	0	0	0	0	895.166	0.473639	0.473983	-0.0892148	9	1.97976	11	0	8.601	-4.22863e-05
2	1	0	0	0	1	907.345	0.487291	0.487585	0.110333	10	1.98001	11	0	7.2008	5.37969e-05
2	1	0	0	0	1	919.647	0.548799	0.54916	0.410035	10	1.98243	11	0	19.5024	0.000225175
2	1	0	0	0	1	931.948	0.610307	0.610596	2.39698	10	1.99734	11	0	31.804	0.00146358
2	1	0	0	0	1	944.25	0.671815	0.672037	6.07678	10	2.04836	11	0	44.1056	0.00408382
2	1	0	1	0	1	956.348	0.667664	0.667972	5.68869	10	2.13179	11	0	56.2034	0.00379989
2	1	0	1	0	1	968.649	0.606156	0.606498	2.07776	10	2.17833	11	0	68.505	0.00126016
2	1	0	1	0	1	980.951	0.544648	0.545032	0.217128	10	2.19012	11	0	80.8066	0.000118342
2	0	0	1	0	1	993.253	0.48314	0.483425	-0.0771948	10	2.19026	11	0	6.8008	-3.73179e-05
2	1	0	1	0	0	1005.43	0.47779	0.478091	0.10079	11	2.19015	11	0	5.3006	4.81867e-05
2	1	0	1	0	0	1017.73	0.539298	0.539668	0.296008	11	2.19208	11	0	17.6022	0.000159746
2	1	0	1	0	0	1030.03	0.600806	0.601036	1.92139	11	2.2034	11	0	29.9038	0.00115482
2	1	0	1	0	0	1042.34	0.662313	0.662589	5.41836	11	2.24728	11	0	42.2054	0.00359014
2	1	0	0	0	0	1054.43	0.677165	0.677465	6.39322	11	2.33021	11	0	54.3032	0.00433119
2	1	0	0	0	0	1066.74	0.615657	0.61593	2.52856	11	2.38382	11	0	66.6048	0.00155741
2	1	0	0	0	0	1079.04	0.55415	0.554497	0.350682	11	2.3992	11	0	78.9064	0.000194452
2	0	0	0	0	0	1091.34	0.492642	0.492954	-0.069056	11	2.39998	11	0	4.9006	-3.40414e-05
2	1	0	0	0	1	1103.52	0.468288	0.468598	0.0975843	12	2.39954	11	0	3.4004	4.57279e-05
2	1	0	0	0	1	1115.82	0.529796	0.530039	0.221229	12	2.40116	11	0	15.702	0.00011726
2	1	0	0	0	1	1128.12	0.591304	0.591616	1.50261	12	2.4096	11	0	28.0036	0.000888966
2	1	0	0	0	1	1140.42	0.652812	0.653192	4.76916	12	2.44675	11	0	40.3052	0.00311518
2	1	0	1	0	1	1152.52	0.686667	0.686951	6.98448	12	2.52627	11	0	52.403	0.004798
2	1	0	1	0	1	1164.82	0.625159	0.625477	2.99225	12	2.58662	11	0	64.7046	0.00187158
2	1	0	1	0	1	1177.12	0.563651	0.563933	0.52115	12	2.60611	11	0	77.0062	0.000293894
2	0	0	1	0	1	1189.43	0.502143	0.502492	-0.0486137	12	2.60778	11	0	3.1004	-2.4428e-05
2	1	0	1	0	0	1201.6	0.458787	0.459139	0.0944049	13	2.60704	11	0	1.5002	4.33449e-05
2	1	0	1	0	0	1213.91	0.520295	0.520654	0.171422	13	2.60846	11	0	13.8018	8.92514e-05
2	1	0	1	0	0	1226.21	0.581803	0.582098	1.14376	13	2.61465	11	0	26.1034	0.00066578
2	1	0	1	0	0	1238.51	0.643311	0.643558	4.16651	13	2.64554	11	0	38.405	0.00268139
2	1	0	0	0	0	1250.61	0.696168	0.696419	7.57315	13	2.71932	11	0	50.5028	0.00527408
2	1	0	0	0	0	1262.91	0.63466	0.634941	3.45709	13	2.78612	11	0	62.8044	0.00219505
2	1	0	1	0	0	1275.21	0.573152	0.573454	0.750585	13	2.81009	11	0	75.1059	0.000430425
2	0	0	1	0	0	1287.51	0.511644	0.511912	-0.0255677	13	2.81299	11	0	1.3001	-1.30884e-05
2	0	0	1	0	0	1299.8	0.450211	0.450574	-0.0992729	13	2.81207	11	0	13.5866	-4.47298e-05
2	1	0	1	0	1	1311.99	0.510794	0.511022	0.139365	14	2.8133	11	0	11.9014	7.12188e-05
2	1	0	1	0	1	1324.29	0.572302	0.572615	0.853082	14	2.81785	11	0	24.203	0.000488487
2	1	0	1	0	1	1336.6	0.63381	0.634112	3.57969	14	2.84315	11	0	36.5046	0.00226992
2	1	0	1	0	1	1348.9	0.695318	0.695635	7.63148	14	2.91117	11	0	48.8062	0.00530873
2	1	0	0	0	1	1360.99	0.644161	0.644462	4.07091	14	2.9844	11	0	60.904	0.00262355
2	1	0	0	0	1	1373.3	0.582653	0.582979	1.02726	14	3.01394	11	0	73.2056	0.000598869
2	1	0	0	0	1	1385.6	0.521145	0.521478	0.0076236	14	3.01847	11	0	85.5072	3.97554e-06
2	0	0	0	0	1	1397.9	0.459637	0.459928	-0.0916161	14	3.01771	11	0	11.7014	-4.21368e-05
2	1	0	0	0	0	1410.08	0.501293	0.501606	0.117229	15	3.01852	11	0	10.0012	5.88026e-05
2	1	0	0	0	0	1422.38	0.562801	0.563114	0.615714	15	3.02187	11	0	22.3028	0.000346717
2	1	0	0	0	0	1434.68	0.624309	0.624635	3.02646	15	3.04209	11	0	34.6044	0.00189043
2	1	0	0	0	0	1446.98	0.685817	0.686065	6.90989	15	3.10225	11	0	46.906	0.00474063
2	1	0	1	0	0	1459.08	0.653662	0.65394	4.60031	15	3.18088	11	0	59.0038	0.00300832
2	1	0	1	0	0	1471.38	0.592154	0.592428	1.34693	15	3.21577	11	0	71.3054	0.000797957
2	1	0	1	0	0	1483.68	0.530646	0.530944	0.0622724	15	3.22235	11	0	83.607	3.30632e-05
2	0	0	1	0	0	1495.99	0.469139	0.469452	-0.0895937	15	3.22183	11	0	9.8012	-4.20599e-05
2	0	0	0	0	0	1499.81	0.450011	0.450274	-0.112295	15	3.22146	11	0	13.624	-5.05634e-05