File: ACS_Catal_2026/Figures_Na_K/main_figures/data/EC/20240126_2-102_Add_Na/20240125_2-102_008_preconditiioning_elctrode4_02_PEIS_C02.mpt
EC-Lab ASCII FILE
Nb header lines : 63

Potentio Electrochemical Impedance Spectroscopy

Run on channel : 2 (SN 66414)
User :
CE vs. WE compliance from -10 V to 10 V
Electrode connection : standard
Potential control : Ewe
Ewe ctrl range : min = -1.00 V, max = 1.00 V
Safety Limits :
	Do not start on E overload
Acquisition started on : 01/26/2024 17:15:30.810
Loaded Setting File :  C:\Users\NakamuraT\Documents\EC-Lab\Data\Yatsuzuka\20240126_2-102_Add_Na\20240125_2-102_007_preconditioning_elctrode3.mps
Saved on :
	File : 20240125_2-102_008_preconditiioning_elctrode4_02_PEIS_C02.mpr
	Directory : C:\Users\NakamuraT\Documents\EC-Lab\Data\Yatsuzuka\20240126_2-102_Add_Na\
	Host : 192.109.209.100
Device : SP-150e (SN .003411)
Address : 192.109.209.236
EC-Lab for windows v11.50 (software)
Internet server v11.50 (firmware)
Command interpretor v11.50 (firmware)
Electrode material :
Initial state :
Electrolyte :
Comments :
Electrode surface area : 0.001 cm2
Characteristic mass : 0.001 g
Equivalent Weight : 0.000 g/eq.
Density : 0.000 g/cm3
Volume (V) : 0.001 cm3
Cycle Definition : Charge/Discharge alternance
Mode                Single sine
E (V)               0.4000
vs.                 Eoc
tE (h:m:s)          0:00:0.0000
record              0
dI                  0.000
unit dI             mA
dt (s)              0.000
fi                  500.000
unit fi             kHz
ff                  1.000
unit ff             Hz
Nd                  6
Points              per decade
spacing             Logarithmic
Va (mV)             10.0
pw                  0.10
Na                  2
corr                0
E range min (V)     -1.000
E range max (V)     1.000
I Range             Auto
Bandwidth           5
nc cycles           0
goto Ns'            0
nr cycles           0
inc. cycle          0

freq/Hz	Re(Z)/Ohm	-Im(Z)/Ohm	|Z|/Ohm	Phase(Z)/deg	time/s	<Ewe>/V	<I>/mA	Cs/uF	Cp/uF	cycle number	I Range	|Ewe|/V	|I|/A	Ns	(Q-Qo)/mA.h	Re(Y)/Ohm-1	Im(Y)/Ohm-1	|Y|/Ohm-1	Phase(Y)/deg	Re(C)/nF	Im(C)/nF	|C|/nF	Phase(C)/deg	Re(M)	Im(M)	|M|	Phase(M)/deg	Re(Permittivity)	Im(Permittivity)	|Permittivity|	Phase(Permittivity)/deg	Re(Resistivity)/Ohm.cm	Im(Resistivity)/Ohm.cm	|Resistivity|/Ohm.cm	Phase(Resistivity)/deg	Re(Conductivity)/mS/cm	Im(Conductivity)/mS/cm	|Conductivity|/mS/cm	Phase(Conductivity)/deg	Tan(Delta)	Loss Angle(Delta)/deg	dq/mA.h
500019	31.6698	7.05902	32.4469	-12.5655	211.206	0.329192	-0.116346	0.0450909	0.00213418	1	10	0.010304	0.000317563	0	-0.000104547	0.0300814	0.00670498	0.0308196	12.5655	2.13418	9.57484	9.80981	-77.4345	0.0000000E+000	0.0000000E+000	0.0000000E+000	77.4345	0.0000000E+000	0.0000000E+000	0.0000000E+000	-77.4345	0.0000000E+000	0.0000000E+000	0.0000000E+000	-12.5655	0.0000000E+000	0.0000000E+000	0.0000000E+000	12.5655	4.48642	77.4345	-0.000104547
231063	14.0027	-3.22558	14.3694	12.972	212.05	0.329096	-0.0325557	-0.213542	-0.0107602	1	10	0.0105704	0.000735621	0	-0.000118778	0.0678163	-0.0156217	0.0695923	-12.972	-10.7602	46.7116	47.9349	-102.972	0.0000000E+000	0.0000000E+000	0.0000000E+000	102.972	0.0000000E+000	0.0000000E+000	0.0000000E+000	-102.972	0.0000000E+000	0.0000000E+000	0.0000000E+000	12.972	0.0000000E+000	0.0000000E+000	0.0000000E+000	-12.972	4.34115	77.028	-5.35078e-06
106786	11.2861	-0.921061	11.3236	4.66559	212.895	0.329121	-0.0178274	-1.61814	-0.0107059	1	10	0.0108194	0.000955476	0	-0.00012488	0.0880184	-0.00718321	0.088311	-4.66559	-10.7059	131.183	131.619	-94.6656	0.0000000E+000	0.0000000E+000	0.0000000E+000	94.6656	0.0000000E+000	0.0000000E+000	0.0000000E+000	-94.6656	0.0000000E+000	0.0000000E+000	0.0000000E+000	4.66559	0.0000000E+000	0.0000000E+000	0.0000000E+000	-4.66559	12.2534	85.3344	-3.02374e-06
49352.4	11.0273	-0.360692	11.0332	1.87342	213.739	0.329125	-0.0128863	-8.94079	-0.00955534	1	10	0.0105313	0.000954509	0	-0.000129932	0.0905871	-0.00296301	0.0906356	-1.87342	-9.55534	292.132	292.288	-91.8734	0.0000000E+000	0.0000000E+000	0.0000000E+000	91.8734	0.0000000E+000	0.0000000E+000	0.0000000E+000	-91.8734	0.0000000E+000	0.0000000E+000	0.0000000E+000	1.87342	0.0000000E+000	0.0000000E+000	0.0000000E+000	-1.87342	30.5726	88.1266	-1.43248e-06
22806.6	10.9656	-0.160569	10.9668	0.83892	214.583	0.329137	-0.00824381	-43.4608	-0.00931669	1	10	0.0103778	0.000946294	0	-0.000132458	0.0911744	-0.00133506	0.0911841	-0.83892	-9.3167	636.258	636.326	-90.8389	0.0000000E+000	0.0000000E+000	0.0000000E+000	90.8389	0.0000000E+000	0.0000000E+000	0.0000000E+000	-90.8389	0.0000000E+000	0.0000000E+000	0.0000000E+000	0.83892	0.0000000E+000	0.0000000E+000	0.0000000E+000	-0.83892	68.2922	89.1611	-1.77602e-06
10540.4	10.9468	-0.0781785	10.9471	0.409181	215.427	0.329133	-0.00888036	-193.142	-0.00985042	1	10	0.0101387	0.000926155	0	-0.000134229	0.0913462	-0.000652365	0.0913486	-0.409181	-9.85039	1379.29	1379.32	-90.4092	0.0000000E+000	0.0000000E+000	0.0000000E+000	90.4092	0.0000000E+000	0.0000000E+000	0.0000000E+000	-90.4092	0.0000000E+000	0.0000000E+000	0.0000000E+000	0.409181	0.0000000E+000	0.0000000E+000	0.0000000E+000	-0.409181	140.023	89.5908	-6.04379e-07
4871.56	10.9375	-0.0307385	10.9376	0.161022	216.472	0.329154	-0.0056211	-1062.84	-0.00839445	1	10	0.0100829	0.000921855	0	-0.000136859	0.0914276	-0.000256945	0.0914279	-0.161022	-8.39428	2986.96	2986.97	-90.161	0.0000000E+000	0.0000000E+000	0.0000000E+000	90.161	0.0000000E+000	0.0000000E+000	0.0000000E+000	-90.161	0.0000000E+000	0.0000000E+000	0.0000000E+000	0.161022	0.0000000E+000	0.0000000E+000	0.0000000E+000	-0.161022	355.825	89.839	-1.35941e-06
2250.72	10.9479	-0.0152455	10.9479	0.0797877	217.402	0.329145	-0.00467095	-4638.26	-0.0089946	1	10	0.0103358	0.000944091	0	-0.000137651	0.0913418	-0.000127199	0.0913419	-0.0797877	-8.99466	6459.04	6459.05	-90.0798	0.0000000E+000	0.0000000E+000	0.0000000E+000	90.0798	0.0000000E+000	0.0000000E+000	0.0000000E+000	-90.0798	0.0000000E+000	0.0000000E+000	0.0000000E+000	0.0797877	0.0000000E+000	0.0000000E+000	0.0000000E+000	-0.0797877	718.102	89.9202	-3.70782e-07
1040.33	10.9431	-0.00189352	10.9431	0.00991402	218.332	0.329141	-0.0058059	-80793.9	-0.00241898	1	10	0.010385	0.000948998	0	-0.000139622	0.0913814	-1.58119e-05	0.0913814	-0.00991402	-2.41814	13980	13980	-90.0099	0.0000000E+000	0.0000000E+000	0.0000000E+000	90.0099	0.0000000E+000	0.0000000E+000	0.0000000E+000	-90.0099	0.0000000E+000	0.0000000E+000	0.0000000E+000	0.00991402	0.0000000E+000	0.0000000E+000	0.0000000E+000	-0.00991402	5779.27	89.9901	-1.15233e-06
480.769	10.93	0.0174824	10.93	-0.0916441	219.262	0.329137	-0.00514136	18935.8	0.0484446	1	10	0.0103869	0.000950316	0	-0.000140809	0.0914914	0.00014634	0.0914915	0.0916441	48.4447	30287.5	30287.5	-89.9084	0.0000000E+000	0.0000000E+000	0.0000000E+000	89.9084	0.0000000E+000	0.0000000E+000	0.0000000E+000	-89.9084	0.0000000E+000	0.0000000E+000	0.0000000E+000	-0.0916441	0.0000000E+000	0.0000000E+000	0.0000000E+000	0.0916441	625.198	89.9084	-5.15294e-07
222.061	10.9416	0.0279371	10.9417	-0.146292	220.186	0.329134	-0.00343333	25654.7	0.167249	1	10	0.0103998	0.000950474	0	-0.000141557	0.0913935	0.000233354	0.0913938	0.146292	167.25	65503.3	65503.6	-89.8537	0.0000000E+000	0.0000000E+000	0.0000000E+000	89.8537	0.0000000E+000	0.0000000E+000	0.0000000E+000	-89.8537	0.0000000E+000	0.0000000E+000	0.0000000E+000	-0.146292	0.0000000E+000	0.0000000E+000	0.0000000E+000	0.146292	391.652	89.8537	2.2343e-07
102.667	10.9437	0.0518405	10.9438	-0.27141	221.123	0.32915	-0.00313466	29903.3	0.670998	1	10	0.0104009	0.000950394	0	-0.000143629	0.091375	0.000432846	0.091376	0.27141	670.994	141650	141651	-89.7286	0.0000000E+000	0.0000000E+000	0.0000000E+000	89.7286	0.0000000E+000	0.0000000E+000	0.0000000E+000	-89.7286	0.0000000E+000	0.0000000E+000	0.0000000E+000	-0.27141	0.0000000E+000	0.0000000E+000	0.0000000E+000	0.27141	211.103	89.7286	-1.15873e-06
47.4443	10.9454	0.101894	10.9459	-0.533371	222.034	0.32913	-0.00456642	32921.9	2.8529	1	10	0.0104122	0.000951249	0	-0.000145645	0.0913548	0.000850454	0.0913587	0.533371	2852.9	306455	306469	-89.4666	0.0000000E+000	0.0000000E+000	0.0000000E+000	89.4666	0.0000000E+000	0.0000000E+000	0.0000000E+000	-89.4666	0.0000000E+000	0.0000000E+000	0.0000000E+000	-0.533371	0.0000000E+000	0.0000000E+000	0.0000000E+000	0.533371	107.419	89.4666	-1.28209e-06
21.9144	10.9535	0.226621	10.9559	-1.18524	222.902	0.329118	-0.00229838	32047.2	13.7118	1	10	0.0104053	0.000949747	0	-0.000148946	0.0912556	0.00188801	0.0912751	1.18524	13711.8	662749	662891	-88.8148	0.0000000E+000	0.0000000E+000	0.0000000E+000	88.8148	0.0000000E+000	0.0000000E+000	0.0000000E+000	-88.8148	0.0000000E+000	0.0000000E+000	0.0000000E+000	-1.18524	0.0000000E+000	0.0000000E+000	0.0000000E+000	1.18524	48.3342	88.8148	-2.41003e-06
10.1329	10.9231	0.497188	10.9344	-2.60613	223.829	0.329141	-0.00952063	31591	65.3148	1	10	0.0104055	0.000951628	0	-0.000142359	0.0913595	0.00415841	0.0914541	2.60613	65314.8	1.43496e+06	1.43644e+06	-87.3939	0.0000000E+000	0.0000000E+000	0.0000000E+000	87.3939	0.0000000E+000	0.0000000E+000	0.0000000E+000	-87.3939	0.0000000E+000	0.0000000E+000	0.0000000E+000	-2.60613	0.0000000E+000	0.0000000E+000	0.0000000E+000	2.60613	21.9698	87.3939	6.11907e-06
4.68375	10.9318	1.09445	10.9865	-5.71717	224.879	0.329136	0.0112256	31047.7	308.109	1	11	0.0104146	0.000947945	0	-0.000146366	0.0905681	0.00906731	0.0910209	5.71717	308109	3.07752e+06	3.09291e+06	-84.2828	0.0000000E+000	0.0000000E+000	0.0000000E+000	84.2828	0.0000000E+000	0.0000000E+000	0.0000000E+000	-84.2828	0.0000000E+000	0.0000000E+000	0.0000000E+000	-5.71717	0.0000000E+000	0.0000000E+000	0.0000000E+000	5.71717	9.98843	84.2828	-5.46583e-06
2.16533	10.9457	2.47288	11.2216	-12.7307	226.595	0.329154	-0.00570915	29723	1443.42	1	11	0.010416	0.000928215	0	-0.000147979	0.0869234	0.019638	0.0891141	12.7307	1.44342e+06	6.38901e+06	6.55003e+06	-77.2693	0.0000000E+000	0.0000000E+000	0.0000000E+000	77.2693	0.0000000E+000	0.0000000E+000	0.0000000E+000	-77.2693	0.0000000E+000	0.0000000E+000	0.0000000E+000	-12.7307	0.0000000E+000	0.0000000E+000	0.0000000E+000	12.7307	4.42629	77.2693	9.11155e-06
1.00006	11.1713	5.22644	12.3335	-25.0722	230.205	0.329151	0.00304431	30450	5467.98	1	11	0.0104227	0.000845076	0	-0.000112273	0.0734403	0.0343585	0.0810801	25.0722	5.46798e+06	1.16876e+07	1.29035e+07	-64.9278	0.0000000E+000	0.0000000E+000	0.0000000E+000	64.9278	0.0000000E+000	0.0000000E+000	0.0000000E+000	-64.9278	0.0000000E+000	0.0000000E+000	0.0000000E+000	-25.0722	0.0000000E+000	0.0000000E+000	0.0000000E+000	25.0722	2.13747	64.9278	1.20036e-05