File: ACS_Catal_2026/Figures_Na_K/main_figures/data/EC/20240126_2-102_Add_Na/20240125_2-102_011_add_K_5mL_elctrode3_C01.mpt
EC-Lab ASCII FILE
Nb header lines : 66

Cyclic Voltammetry Advanced

Run on channel : 1 (SN 66412)
User :
CE vs. WE compliance from -10 V to 10 V
Electrode connection : standard
Potential control : Ewe
Ewe ctrl range : min = -1.00 V, max = 1.00 V
Safety Limits :
	Do not start on E overload
Acquisition started on : 01/26/2024 17:39:30.962
Loaded Setting File :  C:\Users\NakamuraT\Documents\EC-Lab\Data\Yatsuzuka\20240126_2-102_Add_Na\20240125_2-102_003_K_elctrode1.mps
Saved on :
	File : 20240125_2-102_011_add_K_5mL_elctrode3_C01.mpr
	Directory : C:\Users\NakamuraT\Documents\EC-Lab\Data\Yatsuzuka\20240126_2-102_Add_Na\
	Host : 192.109.209.100
Device : SP-150e (SN .003411)
Address : 192.109.209.236
EC-Lab for windows v11.50 (software)
Internet server v11.50 (firmware)
Command interpretor v11.50 (firmware)
Electrode material :
Initial state :
Electrolyte :
Comments :
Electrode surface area : 0.001 cm2
Characteristic mass : 0.001 g
Equivalent Weight : 0.000 g/eq.
Density : 0.000 g/cm3
Volume (V) : 0.001 cm3
Cycle Definition : Charge/Discharge alternance
Ei (V)              0.450
vs.                 Ref
ti (h:m:s)          0:00:10.0000
dti (s)             0.0000
dE/dt               5.000
dE/dt unit          mV/s
E1 (V)              0.700
vs.                 Ref
t1 (h:m:s)          0:00:0.0000
dt1 (s)             0.1000
Step percent        50
N                   10
E range min (V)     -1.000
E range max (V)     1.000
I Range             10 mA
I Range min         Unset
I Range max         Unset
I Range init        Unset
Bandwidth           5
E2 (V)              0.450
vs.                 Ref
t2 (h:m:s)          0:00:0.0000
dt2 (s)             0.1000
nc cycles           14
nr                  1
Reverse Scan        0
Ef (V)              0.000
vs.                 Eoc
tf (h:m:s)          0:00:0.0000
dtf (s)             0.1000

mode	ox/red	error	control changes	Ns changes	counter inc.	time/s	control/V	Ewe/V	<I>/mA	cycle number	(Q-Qo)/C	I Range	Ns	step time/s	P/W
2	0	0	1	0	0	0.000000000000000E+000	0.44994	0.45041	-0.00662956	1	0.0000000E+000	11	0	0.000000000000000E+000	-2.98602e-06
2	1	0	0	0	0	12.4572	0.512226	0.512483	0.0695489	1	0.000814846	11	0	12.4022	3.56426e-05
2	1	0	1	0	0	24.9594	0.574737	0.575045	0.210154	1	0.00218191	11	0	24.9044	0.000120848
2	1	0	0	0	0	37.4616	0.637249	0.637543	1.44523	1	0.0105946	11	0	37.4066	0.000921396
2	1	0	1	0	0	49.9588	0.699735	0.700041	4.2874	1	0.045307	11	0	49.9038	0.00300136
2	1	0	0	0	0	62.274	0.638649	0.638951	1.38639	1	0.0789663	11	0	62.219	0.000885837
2	1	0	1	0	0	74.7762	0.576138	0.576472	0.115579	1	0.0864482	11	0	74.7212	6.66281e-05
2	0	0	0	0	0	87.2784	0.513627	0.51393	-0.0515072	1	0.086428	11	0	7.6014	-2.64711e-05
2	0	0	1	0	0	99.7806	0.451115	0.451451	-0.0736558	1	0.0856201	11	0	20.1036	-3.3252e-05
2	1	0	1	0	1	112.156	0.510776	0.511079	0.0663051	2	0.0863478	11	0	11.902	3.38871e-05
2	1	0	0	0	1	124.658	0.573287	0.573623	0.194948	2	0.0876349	11	0	24.4042	0.000111827
2	1	0	0	0	1	137.161	0.635798	0.636115	1.37695	2	0.0955391	11	0	36.9066	0.000875899
2	1	0	1	0	1	149.663	0.698309	0.698569	4.19677	2	0.129199	11	0	49.4088	0.00293173
2	1	0	0	0	1	161.963	0.640149	0.640443	1.43962	2	0.163537	11	0	61.709	0.000921994
2	1	0	1	0	1	174.465	0.577638	0.577909	0.122532	2	0.171382	11	0	74.2112	7.08125e-05
2	0	0	0	0	1	186.967	0.515127	0.515451	-0.0518723	2	0.171405	11	0	7.3014	-2.67376e-05
2	0	0	1	0	1	199.47	0.452616	0.452909	-0.0730966	2	0.170604	11	0	19.8036	-3.31061e-05
2	1	0	1	0	0	211.845	0.509276	0.509572	0.0669421	3	0.171287	11	0	11.602	3.41118e-05
2	1	0	0	0	0	224.347	0.571787	0.572106	0.183927	3	0.172527	11	0	24.1042	0.000105226
2	1	0	1	0	0	236.849	0.634298	0.63462	1.31344	3	0.179998	11	0	36.6064	0.000833538
2	1	0	0	0	0	249.352	0.696809	0.697105	4.09585	3	0.212596	11	0	49.1086	0.00285523
2	1	0	1	0	0	261.652	0.641649	0.641968	1.47977	3	0.247518	11	0	61.4088	0.000949967
2	1	0	1	0	0	274.154	0.579138	0.579485	0.132394	3	0.255647	11	0	73.9111	7.67206e-05
2	0	0	0	0	0	286.656	0.516627	0.516916	-0.0506587	3	0.255712	11	0	7.0014	-2.61863e-05
2	0	0	1	0	0	299.159	0.454116	0.454395	-0.0724025	3	0.254919	11	0	19.5036	-3.28993e-05
2	1	0	1	0	1	311.534	0.507776	0.508086	0.065559	4	0.255558	11	0	11.302	3.33096e-05
2	1	0	0	0	1	324.036	0.570287	0.570634	0.173539	4	0.256752	11	0	23.8042	9.90275e-05
2	1	0	1	0	1	336.538	0.632798	0.633086	1.25146	4	0.263802	11	0	36.3064	0.000792284
2	1	0	0	0	1	349.041	0.695309	0.695638	3.99834	4	0.295372	11	0	48.8086	0.0027814
2	1	0	1	0	1	361.341	0.64315	0.643435	1.52709	4	0.330959	11	0	61.1088	0.000982581
2	1	0	0	0	1	373.843	0.580638	0.58091	0.141059	4	0.339413	11	0	73.611	8.19424e-05
2	0	0	0	0	1	386.345	0.518127	0.518455	-0.0511945	4	0.339518	11	0	6.9012	-2.6542e-05
2	0	0	1	0	1	398.847	0.455616	0.455931	-0.0732747	4	0.338732	11	0	19.4035	-3.34082e-05
2	1	0	1	0	0	411.223	0.506275	0.506584	0.0638051	5	0.339328	11	0	11.0019	3.23226e-05
2	1	0	1	0	0	423.725	0.568786	0.569115	0.161757	5	0.340481	11	0	23.5042	9.20586e-05
2	1	0	0	0	0	436.227	0.631297	0.631655	1.18864	5	0.347135	11	0	36.0064	0.000750811
2	1	0	1	0	0	448.73	0.693809	0.694112	3.90247	5	0.377685	11	0	48.5086	0.00270875
2	1	0	0	0	0	461.03	0.64465	0.644924	1.55457	5	0.413681	11	0	60.8088	0.00100258
2	1	0	1	0	0	473.532	0.582139	0.582483	0.149197	5	0.422375	11	0	73.311	8.69049e-05
2	0	0	0	0	0	486.034	0.519628	0.519946	-0.0501681	5	0.422524	11	0	6.6012	-2.60847e-05
2	0	0	1	0	0	498.536	0.457117	0.457411	-0.0723941	5	0.421744	11	0	19.1034	-3.31139e-05
2	1	0	1	0	1	510.912	0.504775	0.505078	0.0647317	6	0.422296	11	0	10.7018	3.26945e-05
2	1	0	0	0	1	523.414	0.567286	0.567574	0.154382	6	0.423413	11	0	23.204	8.76229e-05
2	1	0	1	0	1	535.916	0.629797	0.630091	1.13288	6	0.429696	11	0	35.7063	0.000713816
2	1	0	1	0	1	548.419	0.692308	0.692626	3.80787	6	0.459265	11	0	48.2086	0.00263743
2	1	0	0	0	1	560.719	0.64615	0.64644	1.60393	6	0.495699	11	0	60.5088	0.00103685
2	1	0	1	0	1	573.221	0.583639	0.583908	0.16309	6	0.504751	11	0	73.011	9.52295e-05
2	0	0	0	0	1	585.723	0.521128	0.521452	-0.0494863	6	0.504953	11	0	6.3012	-2.58047e-05
2	0	0	1	0	1	598.225	0.458617	0.458879	-0.0705048	6	0.504179	11	0	18.8034	-3.23531e-05
2	1	0	1	0	0	610.601	0.503275	0.503584	0.0641454	7	0.504688	11	0	10.4018	3.23026e-05
2	1	0	0	0	0	623.103	0.565786	0.566047	0.145177	7	0.505771	11	0	22.904	8.21773e-05
2	1	0	1	0	0	635.605	0.628297	0.628553	1.07778	7	0.511705	11	0	35.4062	0.000677445
2	1	0	0	0	0	648.107	0.690808	0.69107	3.71178	7	0.54028	11	0	47.9084	0.0025651
2	1	0	1	0	0	660.408	0.64765	0.647941	1.65097	7	0.577159	11	0	60.2086	0.00106973
2	1	0	0	0	0	672.91	0.585139	0.585498	0.17131	7	0.586538	11	0	72.7108	0.000100302
2	0	0	0	0	0	685.412	0.522628	0.522893	-0.0481993	7	0.586785	11	0	6.1012	-2.52031e-05
2	0	0	1	0	0	697.914	0.460117	0.46043	-0.0710451	7	0.58602	11	0	18.6034	-3.27113e-05
2	1	0	1	0	1	710.29	0.501774	0.502053	0.0645714	8	0.586488	11	0	10.1018	3.24182e-05
2	1	0	0	0	1	722.792	0.564286	0.564585	0.139024	8	0.587541	11	0	22.604	7.8491e-05
2	1	0	1	0	1	735.294	0.626797	0.627084	1.02457	8	0.593147	11	0	35.1062	0.000642492
2	1	0	0	0	1	747.796	0.689308	0.689536	3.61632	8	0.62078	11	0	47.6084	0.00249358
2	1	0	1	0	1	760.097	0.649151	0.649416	1.68393	8	0.657954	11	0	59.9086	0.00109357
2	1	0	0	0	1	772.599	0.58664	0.586968	0.183335	8	0.667652	11	0	72.4108	0.000107612
2	0	0	1	0	1	785.101	0.524128	0.524409	-0.0470581	8	0.667958	11	0	5.801	-2.46776e-05
2	0	0	0	0	1	797.603	0.461617	0.461953	-0.0692958	8	0.6672	11	0	18.3032	-3.20114e-05
2	1	0	1	0	0	809.979	0.500274	0.500559	0.0644628	9	0.667627	11	0	9.8017	3.22674e-05
2	1	0	0	0	0	822.481	0.562785	0.563145	0.133321	9	0.668655	11	0	22.304	7.50789e-05
2	1	0	1	0	0	834.983	0.625296	0.62558	0.978154	9	0.673963	11	0	34.8062	0.000611914
2	1	0	0	0	0	847.485	0.687808	0.688061	3.54808	9	0.700782	11	0	47.3084	0.0024413
2	1	0	1	0	0	859.786	0.650651	0.650952	1.76124	9	0.738784	11	0	59.6086	0.00114648
2	1	0	0	0	0	872.288	0.58814	0.588426	0.198304	9	0.749051	11	0	72.1108	0.000116688
2	0	0	1	0	0	884.79	0.525629	0.525958	-0.0454798	9	0.749426	11	0	5.601	-2.39204e-05
2	0	0	0	0	0	897.292	0.463118	0.463459	-0.0688189	9	0.748677	11	0	18.1032	-3.18948e-05
2	1	0	0	0	1	909.668	0.498774	0.499085	0.0637317	10	0.749063	11	0	9.5016	3.18076e-05
2	1	0	1	0	1	922.17	0.561285	0.561496	0.127465	10	0.750065	11	0	22.0038	7.1571e-05
2	1	0	0	0	1	934.672	0.623796	0.62406	0.929556	10	0.755082	11	0	34.506	0.000580099
2	1	0	0	0	1	947.174	0.686307	0.686575	3.45346	10	0.780967	11	0	47.0084	0.00237106
2	1	0	1	0	1	959.475	0.652151	0.652351	1.80517	10	0.819183	11	0	59.3086	0.0011776
2	1	0	0	0	1	971.977	0.58964	0.589915	0.211635	10	0.8298	11	0	71.8108	0.000124847
2	0	0	1	0	1	984.479	0.527129	0.527372	-0.0440193	10	0.830236	11	0	5.401	-2.32145e-05
2	0	0	0	0	1	996.981	0.464618	0.464972	-0.0696237	10	0.829494	11	0	17.9032	-3.23731e-05
2	1	0	0	0	0	1009.36	0.497274	0.497527	0.0625276	11	0.82984	11	0	9.2016	3.11092e-05
2	1	0	1	0	0	1021.86	0.559785	0.560109	0.120396	11	0.83082	11	0	21.7038	6.74351e-05
2	1	0	0	0	0	1034.36	0.622296	0.622612	0.882451	11	0.835567	11	0	34.206	0.000549424
2	1	0	1	0	0	1046.86	0.684807	0.685089	3.36877	11	0.860618	11	0	46.7082	0.00230791
2	1	0	0	0	0	1059.16	0.653651	0.653886	1.84975	11	0.899146	11	0	59.0084	0.00120952
2	1	0	1	0	0	1071.67	0.59114	0.591513	0.226249	11	0.910135	11	0	71.5106	0.000133829
2	0	0	1	0	0	1084.17	0.52863	0.528887	-0.0410842	11	0.91064	11	0	5.1009	-2.17289e-05
2	0	0	0	0	0	1096.67	0.466118	0.466456	-0.0678715	11	0.909908	11	0	17.6032	-3.16591e-05
2	1	0	0	0	1	1109.05	0.495773	0.496054	0.063316	12	0.910215	11	0	8.9016	3.14081e-05
2	1	0	1	0	1	1121.55	0.558285	0.558593	0.115849	12	0.911175	11	0	21.4038	6.47126e-05
2	1	0	0	0	1	1134.05	0.620796	0.62112	0.838969	12	0.915671	11	0	33.906	0.0005211
2	1	0	1	0	1	1146.55	0.683307	0.683632	3.28424	12	0.939893	11	0	46.4082	0.00224521
2	1	0	0	0	1	1158.85	0.655152	0.65552	1.91046	12	0.978763	11	0	58.7084	0.00125235
2	1	0	1	0	1	1171.35	0.592641	0.59295	0.24248	12	0.990213	11	0	71.2106	0.000143778
2	0	0	0	0	1	1183.86	0.530129	0.530466	-0.0401373	12	0.990792	11	0	4.8008	-2.12915e-05
2	0	0	1	0	1	1196.36	0.467618	0.467922	-0.0681555	12	0.990068	11	0	17.303	-3.18914e-05
2	1	0	1	0	0	1208.73	0.494273	0.494547	0.0633951	13	0.990337	11	0	8.6014	3.13519e-05
2	1	0	1	0	0	1221.24	0.556784	0.557067	0.111783	13	0.991279	11	0	21.1037	6.22707e-05
2	1	0	0	0	0	1233.74	0.619295	0.619589	0.79596	13	0.995529	11	0	33.606	0.000493168
2	1	0	1	0	0	1246.24	0.681806	0.682051	3.2036	13	1.01893	11	0	46.1082	0.00218502
2	1	0	0	0	0	1258.54	0.656652	0.656975	1.96222	13	1.05811	11	0	58.4084	0.00128913
2	1	0	1	0	0	1271.04	0.594141	0.594445	0.257165	13	1.06998	11	0	70.9106	0.000152871
2	0	0	0	0	0	1283.55	0.53163	0.531851	-0.0389439	13	1.07063	11	0	4.6008	-2.07123e-05
2	0	0	1	0	0	1296.05	0.469119	0.469453	-0.0678876	13	1.06992	11	0	17.103	-3.187e-05
2	1	0	1	0	1	1308.42	0.492773	0.493019	0.0616616	14	1.07015	11	0	8.3014	3.04004e-05
2	1	0	0	0	1	1320.93	0.555284	0.555659	0.106538	14	1.07107	11	0	20.8036	5.91987e-05
2	1	0	1	0	1	1333.43	0.617795	0.618112	0.755775	14	1.07509	11	0	33.3058	0.000467153
2	1	0	1	0	1	1345.93	0.680306	0.680599	3.11639	14	1.09767	11	0	45.8081	0.00212101
2	1	0	1	0	1	1358.23	0.658152	0.658453	2.01905	14	1.1371	11	0	58.1083	0.00132945
2	1	0	0	0	1	1370.73	0.595641	0.595931	0.27191	14	1.14945	11	0	70.6106	0.00016204
2	0	0	1	0	1	1383.23	0.53313	0.533424	-0.0375695	14	1.15018	11	0	4.2008	-2.00405e-05
2	0	0	0	0	1	1395.74	0.470619	0.470948	-0.0658671	14	1.14947	11	0	16.703	-3.102e-05
2	1	0	0	0	0	1408.11	0.491273	0.491633	0.0628418	15	1.14966	11	0	8.0014	3.08951e-05
2	1	0	1	0	0	1420.61	0.553784	0.554076	0.103944	15	1.15056	11	0	20.5036	5.75929e-05
2	1	0	0	0	0	1433.12	0.616295	0.616568	0.716752	15	1.15437	11	0	33.0058	0.000441926
2	1	0	1	0	0	1445.62	0.678806	0.679144	3.03509	15	1.17615	11	0	45.508	0.00206126
2	1	0	0	0	0	1457.92	0.659653	0.659956	2.06729	15	1.21571	11	0	57.8082	0.00136432
2	1	0	1	0	0	1470.42	0.597141	0.59748	0.287871	15	1.22844	11	0	70.3104	0.000171997
2	0	0	0	0	0	1482.92	0.53463	0.534985	-0.0364216	15	1.22925	11	0	4.0006	-1.9485e-05
2	0	0	1	0	0	1495.43	0.47212	0.472414	-0.0664776	15	1.22855	11	0	16.5029	-3.1405e-05
2	0	0	1	0	0	1499.84	0.44999	0.450314	-0.0792941	15	1.22824	11	0	20.9218	-3.57073e-05