File: ACS_Catal_2026/Figures_Na_K/main_figures/data/EC/20240126_2-102_Add_Na/20240201_2-102_013_preconditioning_elctrode5_02_PEIS_C01.mpt
EC-Lab ASCII FILE
Nb header lines : 63

Potentio Electrochemical Impedance Spectroscopy

Run on channel : 1 (SN 66412)
User :
CE vs. WE compliance from -10 V to 10 V
Electrode connection : standard
Potential control : Ewe
Ewe ctrl range : min = -1.00 V, max = 1.00 V
Safety Limits :
	Do not start on E overload
Acquisition started on : 02/01/2024 14:47:09.385
Loaded Setting File :  C:\Users\NakamuraT\Documents\EC-Lab\Data\Yatsuzuka\20240126_2-102_Add_Na\20240201_2-102_014_preconditioning_elctrode6.mps
Saved on :
	File : 20240201_2-102_013_preconditioning_elctrode5_02_PEIS_C01.mpr
	Directory : C:\Users\NakamuraT\Documents\EC-Lab\Data\Yatsuzuka\20240126_2-102_Add_Na\
	Host : 192.109.209.100
Device : SP-150e (SN .003411)
Address : 192.109.209.236
EC-Lab for windows v11.50 (software)
Internet server v11.50 (firmware)
Command interpretor v11.50 (firmware)
Electrode material :
Initial state :
Electrolyte :
Comments :
Electrode surface area : 0.001 cm2
Characteristic mass : 0.001 g
Equivalent Weight : 0.000 g/eq.
Density : 0.000 g/cm3
Volume (V) : 0.001 cm3
Cycle Definition : Charge/Discharge alternance
Mode                Single sine
E (V)               0.4000
vs.                 Eoc
tE (h:m:s)          0:00:0.0000
record              0
dI                  0.000
unit dI             mA
dt (s)              0.000
fi                  500.000
unit fi             kHz
ff                  1.000
unit ff             Hz
Nd                  6
Points              per decade
spacing             Logarithmic
Va (mV)             10.0
pw                  0.10
Na                  2
corr                0
E range min (V)     -1.000
E range max (V)     1.000
I Range             Auto
Bandwidth           5
nc cycles           0
goto Ns'            0
nr cycles           0
inc. cycle          0

freq/Hz	Re(Z)/Ohm	-Im(Z)/Ohm	|Z|/Ohm	Phase(Z)/deg	time/s	<Ewe>/V	<I>/mA	Cs/uF	Cp/uF	cycle number	I Range	|Ewe|/V	|I|/A	Ns	(Q-Qo)/mA.h	Re(Y)/Ohm-1	Im(Y)/Ohm-1	|Y|/Ohm-1	Phase(Y)/deg	Re(C)/nF	Im(C)/nF	|C|/nF	Phase(C)/deg	Re(M)	Im(M)	|M|	Phase(M)/deg	Re(Permittivity)	Im(Permittivity)	|Permittivity|	Phase(Permittivity)/deg	Re(Resistivity)/Ohm.cm	Im(Resistivity)/Ohm.cm	|Resistivity|/Ohm.cm	Phase(Resistivity)/deg	Re(Conductivity)/mS/cm	Im(Conductivity)/mS/cm	|Conductivity|/mS/cm	Phase(Conductivity)/deg	Tan(Delta)	Loss Angle(Delta)/deg	dq/mA.h
500019	29.2829	-0.199196	29.2835	0.389748	211.21	0.310714	-0.0843823	-1.59791	-7.3938e-05	1	10	0.0101454	0.000346453	0	-9.18356e-05	0.0341481	-0.000232292	0.0341489	-0.389748	-0.073938	10.8693	10.8695	-90.3897	0.0000000E+000	0.0000000E+000	0.0000000E+000	90.3897	0.0000000E+000	0.0000000E+000	0.0000000E+000	-90.3897	0.0000000E+000	0.0000000E+000	0.0000000E+000	0.389748	0.0000000E+000	0.0000000E+000	0.0000000E+000	-0.389748	147.005	89.6103	-9.18356e-05
231063	13.8195	-2.25122	14.0016	9.25234	212.054	0.310614	-0.0396786	-0.305965	-0.00790955	1	10	0.0107692	0.000769141	0	-0.000103402	0.0704911	-0.0114832	0.0714203	-9.25234	-7.90955	48.5539	49.194	-99.2523	0.0000000E+000	0.0000000E+000	0.0000000E+000	99.2523	0.0000000E+000	0.0000000E+000	0.0000000E+000	-99.2523	0.0000000E+000	0.0000000E+000	0.0000000E+000	9.25234	0.0000000E+000	0.0000000E+000	0.0000000E+000	-9.25234	6.13865	80.7477	-4.72531e-06
106786	12.2123	-0.597989	12.227	2.8033	213.034	0.31062	-0.0265538	-2.49236	-0.00596156	1	10	0.0106862	0.000873989	0	-0.000110858	0.0816885	-0.00399996	0.0817864	-2.8033	-5.96157	121.749	121.895	-92.8033	0.0000000E+000	0.0000000E+000	0.0000000E+000	92.8033	0.0000000E+000	0.0000000E+000	0.0000000E+000	-92.8033	0.0000000E+000	0.0000000E+000	0.0000000E+000	2.8033	0.0000000E+000	0.0000000E+000	0.0000000E+000	-2.8033	20.4223	87.1967	-2.7907e-06
49352.4	12.0321	-0.227713	12.0342	1.08422	213.879	0.310622	-0.024212	-14.162	-0.00507064	1	10	0.0104946	0.000872062	0	-0.000115671	0.0830815	-0.00157236	0.0830963	-1.08422	-5.07065	267.927	267.975	-91.0842	0.0000000E+000	0.0000000E+000	0.0000000E+000	91.0842	0.0000000E+000	0.0000000E+000	0.0000000E+000	-91.0842	0.0000000E+000	0.0000000E+000	0.0000000E+000	1.08422	0.0000000E+000	0.0000000E+000	0.0000000E+000	-1.08422	52.8388	88.9158	-3.24277e-06
22806.6	11.9902	-0.102596	11.9906	0.490249	214.724	0.310632	-0.0225663	-68.0191	-0.00497976	1	10	0.0102854	0.000857786	0	-0.000121938	0.0833956	-0.000713588	0.0833987	-0.490249	-4.97976	581.974	581.995	-90.4903	0.0000000E+000	0.0000000E+000	0.0000000E+000	90.4903	0.0000000E+000	0.0000000E+000	0.0000000E+000	-90.4903	0.0000000E+000	0.0000000E+000	0.0000000E+000	0.490249	0.0000000E+000	0.0000000E+000	0.0000000E+000	-0.490249	116.868	89.5097	-2.03649e-06
10540.4	11.9747	-0.0492163	11.9748	0.235486	215.569	0.310634	-0.0213236	-306.8	-0.00518248	1	10	0.0101057	0.000843919	0	-0.000127833	0.0835081	-0.000343221	0.0835089	-0.235486	-5.18254	1260.94	1260.95	-90.2355	0.0000000E+000	0.0000000E+000	0.0000000E+000	90.2355	0.0000000E+000	0.0000000E+000	0.0000000E+000	-90.2355	0.0000000E+000	0.0000000E+000	0.0000000E+000	0.235486	0.0000000E+000	0.0000000E+000	0.0000000E+000	-0.235486	243.307	89.7645	-1.98797e-06
4871.56	11.9754	-0.0207292	11.9755	0.0991778	216.394	0.310642	-0.0187561	-1576.05	-0.00472228	1	10	0.0109861	0.000917387	0	-0.000131948	0.083504	-0.000144544	0.0835042	-0.0991778	-4.72212	2728.1	2728.1	-90.0992	0.0000000E+000	0.0000000E+000	0.0000000E+000	90.0992	0.0000000E+000	0.0000000E+000	0.0000000E+000	-90.0992	0.0000000E+000	0.0000000E+000	0.0000000E+000	0.0991778	0.0000000E+000	0.0000000E+000	0.0000000E+000	-0.0991778	577.707	89.9008	-1.57937e-06
2250.72	11.9793	-0.0100306	11.9793	0.0479752	217.546	0.310658	-0.0158397	-7049.75	-0.00494268	1	10	0.0102376	0.000854613	0	-0.000136675	0.0834775	-6.98979e-05	0.0834775	-0.0479752	-4.94252	5902.94	5902.94	-90.048	0.0000000E+000	0.0000000E+000	0.0000000E+000	90.048	0.0000000E+000	0.0000000E+000	0.0000000E+000	-90.048	0.0000000E+000	0.0000000E+000	0.0000000E+000	0.0479752	0.0000000E+000	0.0000000E+000	0.0000000E+000	-0.0479752	1194.28	89.952	-1.47356e-06
1040.33	11.9644	0.00593016	11.9644	-0.0283986	218.476	0.310657	-0.0160897	25797.7	0.0063377	1	10	0.0102776	0.000859012	0	-0.000140864	0.0835812	4.1427e-05	0.0835812	0.0283986	6.33724	12786.6	12786.6	-89.9716	0.0000000E+000	0.0000000E+000	0.0000000E+000	89.9716	0.0000000E+000	0.0000000E+000	0.0000000E+000	-89.9716	0.0000000E+000	0.0000000E+000	0.0000000E+000	-0.0283986	0.0000000E+000	0.0000000E+000	0.0000000E+000	0.0283986	2017.55	89.9716	-2.77648e-06
480.769	11.9714	0.027603	11.9715	-0.132109	219.406	0.310652	-0.016586	11993	0.0637594	1	10	0.0102953	0.000859983	0	-0.000144216	0.0835317	0.000192602	0.083532	0.132109	63.7604	27652.5	27652.6	-89.8679	0.0000000E+000	0.0000000E+000	0.0000000E+000	89.8679	0.0000000E+000	0.0000000E+000	0.0000000E+000	-89.8679	0.0000000E+000	0.0000000E+000	0.0000000E+000	-0.132109	0.0000000E+000	0.0000000E+000	0.0000000E+000	0.132109	433.701	89.8679	-1.69744e-06
222.061	11.9703	0.0503277	11.9704	-0.240892	220.33	0.310641	-0.0161718	14241	0.251733	1	10	0.0103025	0.000860668	0	-0.000148449	0.0835388	0.00035123	0.0835396	0.240892	251.731	59873.8	59874.3	-89.7591	0.0000000E+000	0.0000000E+000	0.0000000E+000	89.7591	0.0000000E+000	0.0000000E+000	0.0000000E+000	-89.7591	0.0000000E+000	0.0000000E+000	0.0000000E+000	-0.240892	0.0000000E+000	0.0000000E+000	0.0000000E+000	0.240892	237.847	89.7591	-2.56796e-06
102.667	11.9739	0.0987472	11.9743	-0.472499	221.267	0.31066	-0.0172671	15698.7	1.0676	1	10	0.0103037	0.000860484	0	-0.000153165	0.0835091	0.000688687	0.0835119	0.472499	1067.6	129456	129460	-89.5275	0.0000000E+000	0.0000000E+000	0.0000000E+000	89.5275	0.0000000E+000	0.0000000E+000	0.0000000E+000	-89.5275	0.0000000E+000	0.0000000E+000	0.0000000E+000	-0.472499	0.0000000E+000	0.0000000E+000	0.0000000E+000	0.472499	121.258	89.5275	-2.6728e-06
47.4443	11.9902	0.189603	11.9917	-0.905949	222.178	0.310641	-0.0153023	17692.6	4.42301	1	10	0.0103053	0.000859368	0	-0.000158661	0.0833804	0.0013185	0.0833909	0.905949	4423.02	279705	279740	-89.094	0.0000000E+000	0.0000000E+000	0.0000000E+000	89.094	0.0000000E+000	0.0000000E+000	0.0000000E+000	-89.094	0.0000000E+000	0.0000000E+000	0.0000000E+000	-0.905949	0.0000000E+000	0.0000000E+000	0.0000000E+000	0.905949	63.2386	89.094	-2.79863e-06
21.9144	12.0047	0.382689	12.0108	-1.82587	223.046	0.310635	-0.0172932	18977.7	19.2661	1	10	0.0103154	0.000858844	0	-0.000163979	0.0832162	0.00265279	0.0832585	1.82587	19266.1	604363	604670	-88.1741	0.0000000E+000	0.0000000E+000	0.0000000E+000	88.1741	0.0000000E+000	0.0000000E+000	0.0000000E+000	-88.1741	0.0000000E+000	0.0000000E+000	0.0000000E+000	-1.82587	0.0000000E+000	0.0000000E+000	0.0000000E+000	1.82587	31.3693	88.1741	-3.97521e-06
10.1329	12.0221	0.84626	12.0518	-4.02654	224.223	0.31064	-0.00288112	18560.1	91.5133	1	11	0.0103228	0.00085654	0	-0.000160081	0.0827703	0.00582639	0.0829751	4.02654	91513.4	1.30005e+06	1.30326e+06	-85.9735	0.0000000E+000	0.0000000E+000	0.0000000E+000	85.9735	0.0000000E+000	0.0000000E+000	0.0000000E+000	-85.9735	0.0000000E+000	0.0000000E+000	0.0000000E+000	-4.02654	0.0000000E+000	0.0000000E+000	0.0000000E+000	4.02654	14.2061	85.9735	7.2617e-06
4.68375	12.0738	1.80779	12.2084	-8.51552	225.073	0.310651	-0.0074749	18796.6	412.151	1	11	0.0103163	0.000845021	0	-0.000166676	0.0810079	0.0121291	0.0819109	8.51552	412151	2.75266e+06	2.78335e+06	-81.4845	0.0000000E+000	0.0000000E+000	0.0000000E+000	81.4845	0.0000000E+000	0.0000000E+000	0.0000000E+000	-81.4845	0.0000000E+000	0.0000000E+000	0.0000000E+000	-8.51552	0.0000000E+000	0.0000000E+000	0.0000000E+000	8.51552	6.67878	81.4845	-2.75556e-06
2.16533	12.2677	3.95511	12.8895	-17.8693	226.786	0.31066	0.00320619	18583.9	1749.77	1	11	0.0103249	0.000801032	0	-0.000151363	0.0738397	0.0238059	0.0775824	17.8693	1.74977e+06	5.42733e+06	5.70243e+06	-72.1307	0.0000000E+000	0.0000000E+000	0.0000000E+000	72.1307	0.0000000E+000	0.0000000E+000	0.0000000E+000	-72.1307	0.0000000E+000	0.0000000E+000	0.0000000E+000	-17.8693	0.0000000E+000	0.0000000E+000	0.0000000E+000	17.8693	3.10174	72.1307	2.96368e-06
1.00006	12.5074	8.23095	14.9728	-33.3483	230.397	0.310668	-0.000275734	19334.9	5843.02	1	11	0.0103341	0.000690191	0	-0.000191212	0.0557908	0.0367151	0.0667879	33.3483	5.84302e+06	8.87882e+06	1.06289e+07	-56.6517	0.0000000E+000	0.0000000E+000	0.0000000E+000	56.6517	0.0000000E+000	0.0000000E+000	0.0000000E+000	-56.6517	0.0000000E+000	0.0000000E+000	0.0000000E+000	-33.3483	0.0000000E+000	0.0000000E+000	0.0000000E+000	33.3483	1.51956	56.6517	-2.21247e-05