File: ACS_Catal_2026/Figures_Na_K/main_figures/data/EC/20240126_2-102_Add_Na/20240201_2-102_013_preconditioning_elctrode5_01_CVA_C01.mpt
EC-Lab ASCII FILE
Nb header lines : 66

Cyclic Voltammetry Advanced

Run on channel : 1 (SN 66412)
User :
CE vs. WE compliance from -10 V to 10 V
Electrode connection : standard
Potential control : Ewe
Ewe ctrl range : min = -1.00 V, max = 1.00 V
Safety Limits :
	Do not start on E overload
Acquisition started on : 02/01/2024 14:47:09.385
Loaded Setting File :  C:\Users\NakamuraT\Documents\EC-Lab\Data\Yatsuzuka\20240126_2-102_Add_Na\20240201_2-102_014_preconditioning_elctrode6.mps
Saved on :
	File : 20240201_2-102_013_preconditioning_elctrode5_01_CVA_C01.mpr
	Directory : C:\Users\NakamuraT\Documents\EC-Lab\Data\Yatsuzuka\20240126_2-102_Add_Na\
	Host : 192.109.209.100
Device : SP-150e (SN .003411)
Address : 192.109.209.236
EC-Lab for windows v11.50 (software)
Internet server v11.50 (firmware)
Command interpretor v11.50 (firmware)
Electrode material :
Initial state :
Electrolyte :
Comments :
Electrode surface area : 0.001 cm2
Characteristic mass : 0.001 g
Equivalent Weight : 0.000 g/eq.
Density : 0.000 g/cm3
Volume (V) : 0.001 cm3
Cycle Definition : Charge/Discharge alternance
Ei (V)              0.350
vs.                 Ref
ti (h:m:s)          0:00:10.0000
dti (s)             1.0000
dE/dt               10.000
dE/dt unit          mV/s
E1 (V)              0.450
vs.                 Ref
t1 (h:m:s)          0:00:0.0000
dt1 (s)             0.1000
Step percent        50
N                   10
E range min (V)     -1.000
E range max (V)     1.000
I Range             Auto
I Range min         Unset
I Range max         Unset
I Range init        Unset
Bandwidth           5
E2 (V)              0.350
vs.                 Ref
t2 (h:m:s)          0:00:0.0000
dt2 (s)             0.1000
nc cycles           9
nr                  1
Reverse Scan        0
Ef (V)              0.000
vs.                 Eoc
tf (h:m:s)          0:00:0.0000
dtf (s)             0.1000

mode	ox/red	error	control changes	Ns changes	counter inc.	time/s	control/V	Ewe/V	<I>/mA	cycle number	(Q-Qo)/C	I Range	Ns	step time/s	P/W
2	1	0	1	0	0	0.000000000000000E+000	0.349989	0.350422	9.02351	1	0.0000000E+000	10	0	0.000000000000000E+000	0.00316204
2	1	0	1	0	0	11.1759	0.361699	0.362006	0.258523	1	0.00627938	12	0	10.1759	9.35871e-05
2	1	0	1	0	0	12.8736	0.378677	0.378999	0.271043	1	0.00672977	12	0	11.8736	0.000102725
2	1	0	1	0	0	14.5713	0.395654	0.396019	0.269344	1	0.00718711	12	0	13.5713	0.000106666
2	1	0	1	0	0	16.2691	0.412631	0.413007	0.277657	1	0.00765285	12	0	15.2691	0.000114675
2	1	0	1	0	0	17.9668	0.429608	0.429968	0.288622	1	0.00813044	12	0	16.9668	0.000124098
2	1	0	1	0	0	19.6645	0.446586	0.446927	0.300323	1	0.00862991	12	0	18.6645	0.000134223
2	1	0	1	0	0	21.2644	0.437399	0.437764	-0.0147939	1	0.00880549	13	0	0.1498	-6.47622e-06
2	0	0	1	0	0	22.9621	0.420421	0.42069	-0.0705993	1	0.00872745	13	0	1.8475	-2.97004e-05
2	0	0	1	0	0	24.6899	0.403144	0.403459	-0.104601	1	0.00857375	12	0	3.5753	-4.22022e-05
2	0	0	1	0	0	26.3876	0.386166	0.386438	-0.121786	1	0.00837893	12	0	5.273	-4.70629e-05
2	0	0	1	0	0	28.0853	0.369189	0.369504	-0.14684	1	0.00815095	12	0	6.9707	-5.42579e-05
2	0	0	1	0	0	29.7831	0.352211	0.352518	-0.158958	1	0.0078924	12	0	8.6685	-5.60357e-05
2	1	0	1	0	1	31.3825	0.363796	0.364086	0.180358	2	0.00803257	12	0	1.1984	6.56657e-05
2	1	0	1	0	1	33.0803	0.380773	0.38103	0.187331	2	0.00834553	12	0	2.8962	7.13789e-05
2	1	0	1	0	1	34.7781	0.397751	0.398027	0.179831	2	0.00865633	12	0	4.594	7.15777e-05
2	1	0	1	0	1	36.4758	0.414729	0.415083	0.187192	2	0.00896814	12	0	6.2917	7.77001e-05
2	1	0	1	0	1	38.1735	0.431706	0.431992	0.194734	2	0.00928967	12	0	7.9894	8.41238e-05
2	1	0	1	0	1	39.8713	0.448683	0.448935	0.217491	2	0.00963839	12	0	9.6872	9.76393e-05
2	0	0	1	0	1	41.4611	0.435401	0.435717	-0.0695864	2	0.00964159	13	0	1.0486	-3.03199e-05
2	0	0	1	0	1	43.1889	0.418124	0.418378	-0.103039	2	0.00949121	12	0	2.7764	-4.31095e-05
2	0	0	1	0	1	44.8866	0.401146	0.401461	-0.121941	2	0.00929985	12	0	4.4741	-4.89546e-05
2	0	0	1	0	1	46.5843	0.384169	0.384435	-0.137285	2	0.00907867	12	0	6.1718	-5.27773e-05
2	0	0	1	0	1	48.2821	0.367191	0.367483	-0.154237	2	0.00883212	12	0	7.8696	-5.66795e-05
2	0	0	1	0	1	49.9774	0.350239	0.350564	-0.164779	2	0.00855955	12	0	9.5649	-5.77656e-05
2	1	0	1	0	0	51.5793	0.365793	0.366137	0.175102	3	0.00875236	12	0	1.3982	6.41114e-05
2	1	0	1	0	0	53.2771	0.382771	0.383068	0.167647	3	0.00904372	12	0	3.096	6.42202e-05
2	1	0	1	0	0	54.9748	0.399749	0.400033	0.169845	3	0.00933099	12	0	4.7937	6.79435e-05
2	1	0	1	0	0	56.6725	0.416726	0.416979	0.168863	3	0.00961678	12	0	6.4914	7.04124e-05
2	1	0	1	0	0	58.3703	0.433703	0.433931	0.175855	3	0.00990959	12	0	8.1892	7.6309e-05
2	1	0	0	0	0	59.9976	0.450007	0.450269	0.21	3	0.0102109	12	0	9.8165	9.45562e-05
2	0	0	1	0	0	61.6579	0.433403	0.433679	-0.0858102	3	0.0101425	13	0	1.3482	-3.72141e-05
2	0	0	1	0	0	63.3856	0.416126	0.416468	-0.112589	3	0.00996961	12	0	3.0759	-4.68899e-05
2	0	0	1	0	0	65.0833	0.399149	0.399426	-0.126422	3	0.00976458	12	0	4.7736	-5.04964e-05
2	0	0	1	0	0	66.7811	0.382172	0.382398	-0.145282	3	0.00953469	12	0	6.4714	-5.55557e-05
2	0	0	1	0	0	68.4788	0.365195	0.365371	-0.152756	3	0.00928109	12	0	8.1691	-5.58125e-05
2	0	0	1	0	1	70.0783	0.350813	0.351033	-0.0606416	4	0.00902471	12	0	9.7686	-2.12872e-05
2	1	0	1	0	1	71.7761	0.367791	0.368059	0.166574	4	0.00925602	12	0	1.598	6.13092e-05
2	1	0	1	0	1	73.4738	0.384769	0.385037	0.162568	4	0.0095369	12	0	3.2957	6.25948e-05
2	1	0	1	0	1	75.1715	0.401745	0.402028	0.163327	4	0.00981239	12	0	4.9934	6.56622e-05
2	1	0	1	0	1	76.8693	0.418723	0.418973	0.158598	4	0.0100863	12	0	6.6912	6.6448e-05
2	1	0	1	0	1	78.567	0.4357	0.436022	0.171928	4	0.0103653	12	0	8.3889	7.49643e-05
2	1	0	1	0	1	80.1269	0.448683	0.448994	0.0464073	4	0.0106286	12	0	9.9488	2.08366e-05
2	0	0	1	0	1	81.8546	0.431407	0.431721	-0.091179	4	0.0105142	13	0	1.5479	-3.93639e-05
2	0	0	1	0	1	83.5823	0.414129	0.414422	-0.113672	4	0.010329	12	0	3.2756	-4.71082e-05
2	0	0	1	0	1	85.2801	0.397152	0.397428	-0.135056	4	0.010117	12	0	4.9734	-5.36749e-05
2	0	0	1	0	1	86.9778	0.380174	0.380389	-0.142203	4	0.00988196	12	0	6.6711	-5.40925e-05
2	0	0	1	0	1	88.6755	0.363197	0.363436	-0.159917	4	0.00962426	12	0	8.3688	-5.81197e-05
2	1	0	1	0	0	90.275	0.35281	0.353088	0.0768367	5	0.00940237	12	0	0.0999	2.71302e-05
2	1	0	1	0	0	91.9727	0.369788	0.370046	0.15933	5	0.00965821	12	0	1.7976	5.89595e-05
2	1	0	1	0	0	93.6705	0.386765	0.387025	0.163315	5	0.00993221	12	0	3.4954	6.32072e-05
2	1	0	1	0	0	95.3683	0.403743	0.403988	0.153823	5	0.0102005	12	0	5.1932	6.21424e-05
2	1	0	1	0	0	97.066	0.42072	0.421002	0.15938	5	0.0104666	12	0	6.8909	6.70993e-05
2	1	0	1	0	0	98.7637	0.437698	0.437994	0.163002	5	0.0107378	12	0	8.5886	7.13937e-05
2	0	0	1	0	0	100.354	0.446386	0.446677	-0.0395286	5	0.0109555	13	0	0.1298	-1.76565e-05
2	0	0	1	0	0	102.081	0.429109	0.429363	-0.100078	5	0.0108118	12	0	1.8575	-4.29697e-05
2	0	0	1	0	0	103.779	0.412132	0.412414	-0.120322	5	0.0106218	12	0	3.5553	-4.96227e-05
2	0	0	1	0	0	105.477	0.395154	0.395421	-0.135678	5	0.0104052	12	0	5.253	-5.36499e-05
2	0	0	1	0	0	107.174	0.378177	0.378458	-0.144406	5	0.0101666	12	0	6.9507	-5.46518e-05
2	0	0	1	0	0	108.872	0.361199	0.361432	-0.163139	5	0.00990618	12	0	8.6485	-5.89638e-05
2	1	0	1	0	1	110.472	0.354808	0.355039	0.122336	6	0.0097366	12	0	0.2996	4.3434e-05
2	1	0	1	0	1	112.169	0.371785	0.372083	0.160591	6	0.0100003	12	0	1.9974	5.97533e-05
2	1	0	1	0	1	113.867	0.388763	0.38897	0.157524	6	0.010269	12	0	3.6952	6.12722e-05
2	1	0	1	0	1	115.565	0.405741	0.405988	0.151018	6	0.0105321	12	0	5.3929	6.13114e-05
2	1	0	1	0	1	117.263	0.422718	0.422983	0.15753	6	0.0107927	12	0	7.0906	6.66323e-05
2	1	0	1	0	1	118.96	0.439695	0.43993	0.157123	6	0.0110588	12	0	8.7884	6.9123e-05
2	0	0	1	0	1	120.55	0.444389	0.444678	-0.0636273	6	0.0112251	13	0	0.3295	-2.82936e-05
2	0	0	1	0	1	122.278	0.427112	0.42735	-0.102834	6	0.0110673	12	0	2.0573	-4.39463e-05
2	0	0	1	0	1	123.976	0.410134	0.410417	-0.126715	6	0.010872	12	0	3.755	-5.20061e-05
2	0	0	1	0	1	125.673	0.393157	0.393401	-0.132177	6	0.0106515	12	0	5.4527	-5.19987e-05
2	0	0	1	0	1	127.371	0.376179	0.376431	-0.151577	6	0.0104103	12	0	7.1505	-5.70582e-05
2	0	0	1	0	1	129.069	0.359203	0.359471	-0.158799	6	0.0101474	12	0	8.8482	-5.70837e-05
2	1	0	1	0	0	130.668	0.356805	0.357096	0.142166	7	0.0100373	12	0	0.4994	5.0767e-05
2	1	0	1	0	0	132.366	0.373783	0.374087	0.159256	7	0.0103025	12	0	2.1972	5.95756e-05
2	1	0	1	0	0	134.064	0.390761	0.391032	0.151512	7	0.0105674	12	0	3.8949	5.92462e-05
2	1	0	1	0	0	135.762	0.407738	0.408001	0.154223	7	0.0108261	12	0	5.5926	6.29231e-05
2	1	0	1	0	0	137.459	0.424715	0.424985	0.148451	7	0.0110829	12	0	7.2904	6.30897e-05
2	1	0	1	0	0	139.157	0.441692	0.441926	0.16261	7	0.0113452	12	0	8.9881	7.18615e-05
2	0	0	1	0	0	140.747	0.442391	0.442648	-0.0817272	7	0.0114595	13	0	0.5293	-3.61764e-05
2	0	0	1	0	0	142.475	0.425114	0.425417	-0.11216	7	0.011292	12	0	2.257	-4.77146e-05
2	0	0	1	0	0	144.172	0.408137	0.408391	-0.12241	7	0.0110917	12	0	3.9547	-4.99913e-05
2	0	0	1	0	0	145.87	0.39116	0.39143	-0.140858	7	0.0108685	12	0	5.6525	-5.51361e-05
2	0	0	1	0	0	147.568	0.374183	0.37438	-0.145816	7	0.0106249	12	0	7.3502	-5.45905e-05
2	0	0	1	0	0	149.266	0.357205	0.357446	-0.166844	7	0.0103596	12	0	9.0479	-5.96377e-05
2	1	0	1	0	1	150.865	0.358802	0.359073	0.150495	8	0.0103111	12	0	0.6991	5.40385e-05
2	1	0	1	0	1	152.563	0.37578	0.376053	0.155528	8	0.010576	12	0	2.3968	5.84866e-05
2	1	0	1	0	1	154.261	0.392757	0.39299	0.152687	8	0.0108372	12	0	4.0946	6.00045e-05
2	1	0	1	0	1	155.958	0.409735	0.410067	0.149354	8	0.0110929	12	0	5.7924	6.12453e-05
2	1	0	1	0	1	157.656	0.426712	0.427019	0.151859	8	0.0113463	12	0	7.4901	6.48465e-05
2	1	0	1	0	1	159.354	0.44369	0.443985	0.1549	8	0.0116061	12	0	9.1878	6.87733e-05
2	0	0	1	0	1	160.944	0.440394	0.440682	-0.0864103	8	0.0116676	13	0	0.729	-3.80795e-05
2	0	0	1	0	1	162.671	0.423117	0.423409	-0.111739	8	0.0114926	12	0	2.4567	-4.73111e-05
2	0	0	1	0	1	164.369	0.40614	0.406404	-0.128042	8	0.0112889	12	0	4.1545	-5.20369e-05
2	0	0	1	0	1	166.067	0.389162	0.389418	-0.13678	8	0.0110631	12	0	5.8522	-5.32648e-05
2	0	0	1	0	1	167.765	0.372185	0.372422	-0.15384	8	0.0108175	12	0	7.5499	-5.72933e-05
2	0	0	1	0	1	169.462	0.355207	0.35548	-0.160994	8	0.0105498	12	0	9.2477	-5.72301e-05
2	1	0	1	0	0	171.062	0.3608	0.361072	0.155356	9	0.0105644	12	0	0.8988	5.60949e-05
2	1	0	1	0	0	172.76	0.377777	0.378009	0.153486	9	0.0108278	12	0	2.5966	5.80189e-05
2	1	0	1	0	0	174.457	0.394755	0.395007	0.150108	9	0.0110865	12	0	4.2944	5.92938e-05
2	1	0	1	0	0	176.155	0.411732	0.41201	0.149272	9	0.0113391	12	0	5.9921	6.15015e-05
2	1	0	1	0	0	177.853	0.42871	0.428995	0.146618	9	0.0115901	12	0	7.6898	6.28982e-05
2	1	0	1	0	0	179.551	0.445687	0.446011	0.159052	9	0.0118477	12	0	9.3876	7.09387e-05
2	0	0	1	0	0	181.14	0.438397	0.438639	-0.0925455	9	0.0118575	13	0	0.9137	-4.0594e-05
2	0	0	1	0	0	182.868	0.42112	0.421408	-0.115716	9	0.0116763	12	0	2.6415	-4.87635e-05
2	0	0	1	0	0	184.566	0.404142	0.404436	-0.126505	9	0.011469	12	0	4.3392	-5.11633e-05
2	0	0	1	0	0	186.264	0.387165	0.387421	-0.142254	9	0.0112412	12	0	6.0369	-5.51123e-05
2	0	0	1	0	0	187.961	0.370187	0.370452	-0.149285	9	0.0109932	12	0	7.7347	-5.53028e-05
2	0	0	1	0	0	189.659	0.353211	0.353455	-0.169231	9	0.0107235	12	0	9.4324	-5.98155e-05
2	1	0	1	0	1	191.259	0.362797	0.363024	0.151288	10	0.0108009	12	0	1.0986	5.49211e-05
2	1	0	1	0	1	192.956	0.379775	0.380041	0.153815	10	0.0110627	12	0	2.7964	5.84561e-05
2	1	0	1	0	1	194.654	0.396753	0.397011	0.148352	10	0.0113184	12	0	4.4941	5.88974e-05
2	1	0	1	0	1	196.352	0.41373	0.414034	0.146197	10	0.0115689	12	0	6.1918	6.05305e-05
2	1	0	1	0	1	198.05	0.430707	0.431006	0.148539	10	0.0118176	12	0	7.8896	6.40211e-05
2	1	0	1	0	1	199.747	0.447684	0.447935	0.154826	10	0.0120743	12	0	9.5873	6.93522e-05
2	0	0	1	0	1	201.337	0.436399	0.436669	-0.0974102	10	0.0120313	13	0	1.1285	-4.25361e-05
2	0	0	1	0	1	203.065	0.419122	0.419381	-0.117937	10	0.0118448	12	0	2.8562	-4.94605e-05
2	0	0	1	0	1	204.763	0.402145	0.402373	-0.129572	10	0.0116349	12	0	4.5539	-5.21361e-05
2	0	0	1	0	1	206.46	0.385168	0.385413	-0.141024	10	0.0114047	12	0	6.2517	-5.43525e-05
2	0	0	1	0	1	208.158	0.368191	0.368446	-0.15411	10	0.011155	12	0	7.9494	-5.67812e-05
2	0	0	1	0	1	209.856	0.351213	0.351486	-0.166431	10	0.010883	12	0	9.6471	-5.84981e-05
2	0	0	1	0	1	209.975	0.349989	0.350288	-0.167478	10	0.0108633	12	0	9.766	-5.86655e-05