File: ACS_Catal_2026/Figures_Na_K/main_figures/data/EC/20240126_2-102_Add_Na/20240125_2-102_002_preconditioning_elctrode2_02_PEIS_C02.mpt
EC-Lab ASCII FILE
Nb header lines : 63

Potentio Electrochemical Impedance Spectroscopy

Run on channel : 2 (SN 66414)
User :
CE vs. WE compliance from -10 V to 10 V
Electrode connection : standard
Potential control : Ewe
Ewe ctrl range : min = -1.00 V, max = 1.00 V
Safety Limits :
	Do not start on E overload
Acquisition started on : 01/26/2024 15:49:20.433
Loaded Setting File :  C:\Users\NakamuraT\Documents\EC-Lab\Data\Yatsuzuka\20240126_2-102_Add_Na\20240125_2-102_001_preconditioning_elctrode1.mps
Saved on :
	File : 20240125_2-102_002_preconditioning_elctrode2_02_PEIS_C02.mpr
	Directory : C:\Users\NakamuraT\Documents\EC-Lab\Data\Yatsuzuka\20240126_2-102_Add_Na\
	Host : 192.109.209.100
Device : SP-150e (SN .003411)
Address : 192.109.209.236
EC-Lab for windows v11.50 (software)
Internet server v11.50 (firmware)
Command interpretor v11.50 (firmware)
Electrode material :
Initial state :
Electrolyte :
Comments :
Electrode surface area : 0.001 cm2
Characteristic mass : 0.001 g
Equivalent Weight : 0.000 g/eq.
Density : 0.000 g/cm3
Volume (V) : 0.001 cm3
Cycle Definition : Charge/Discharge alternance
Mode                Single sine
E (V)               0.4000
vs.                 Eoc
tE (h:m:s)          0:00:0.0000
record              0
dI                  0.000
unit dI             mA
dt (s)              0.000
fi                  500.000
unit fi             kHz
ff                  1.000
unit ff             Hz
Nd                  6
Points              per decade
spacing             Logarithmic
Va (mV)             10.0
pw                  0.10
Na                  2
corr                0
E range min (V)     -1.000
E range max (V)     1.000
I Range             Auto
Bandwidth           5
nc cycles           0
goto Ns'            0
nr cycles           0
inc. cycle          0

freq/Hz	Re(Z)/Ohm	-Im(Z)/Ohm	|Z|/Ohm	Phase(Z)/deg	time/s	<Ewe>/V	<I>/mA	Cs/uF	Cp/uF	cycle number	I Range	|Ewe|/V	|I|/A	Ns	(Q-Qo)/mA.h	Re(Y)/Ohm-1	Im(Y)/Ohm-1	|Y|/Ohm-1	Phase(Y)/deg	Re(C)/nF	Im(C)/nF	|C|/nF	Phase(C)/deg	Re(M)	Im(M)	|M|	Phase(M)/deg	Re(Permittivity)	Im(Permittivity)	|Permittivity|	Phase(Permittivity)/deg	Re(Resistivity)/Ohm.cm	Im(Resistivity)/Ohm.cm	|Resistivity|/Ohm.cm	Phase(Resistivity)/deg	Re(Conductivity)/mS/cm	Im(Conductivity)/mS/cm	|Conductivity|/mS/cm	Phase(Conductivity)/deg	Tan(Delta)	Loss Angle(Delta)/deg	dq/mA.h
500019	32.2708	6.22787	32.8663	-10.9231	211.546	0.34323	-0.0153448	0.0511086	0.00183515	1	10	0.0102627	0.000312255	0	-2.04963e-05	0.029875	0.00576551	0.0304263	10.9231	1.83515	9.50917	9.68463	-79.0769	0.0000000E+000	0.0000000E+000	0.0000000E+000	79.0769	0.0000000E+000	0.0000000E+000	0.0000000E+000	-79.0769	0.0000000E+000	0.0000000E+000	0.0000000E+000	-10.9231	0.0000000E+000	0.0000000E+000	0.0000000E+000	10.9231	5.18168	79.0769	-2.04963e-05
231063	13.8732	-2.92536	14.1783	11.9072	212.39	0.343146	-0.00968118	-0.235457	-0.0100236	1	10	0.0105449	0.000743737	0	-2.17826e-05	0.0690129	-0.0145523	0.0705305	-11.9072	-10.0236	47.5358	48.5811	-101.907	0.0000000E+000	0.0000000E+000	0.0000000E+000	101.907	0.0000000E+000	0.0000000E+000	0.0000000E+000	-101.907	0.0000000E+000	0.0000000E+000	0.0000000E+000	11.9072	0.0000000E+000	0.0000000E+000	0.0000000E+000	-11.9072	4.74239	78.0928	2.88916e-07
106786	11.542	-0.628825	11.5592	3.11846	213.234	0.343166	-0.00681019	-2.37015	-0.00701425	1	10	0.0108038	0.000934653	0	-2.34364e-05	0.0863833	-0.00470627	0.0865114	-3.11846	-7.01425	128.746	128.937	-93.1185	0.0000000E+000	0.0000000E+000	0.0000000E+000	93.1185	0.0000000E+000	0.0000000E+000	0.0000000E+000	-93.1185	0.0000000E+000	0.0000000E+000	0.0000000E+000	3.11846	0.0000000E+000	0.0000000E+000	0.0000000E+000	-3.11846	18.355	86.8815	1.51731e-06
49352.4	11.4545	-0.158178	11.4556	0.791163	214.079	0.343182	-0.00638645	-20.3875	-0.00388708	1	10	0.0105053	0.000917046	0	-2.51479e-05	0.0872852	-0.00120535	0.0872936	-0.791163	-3.88707	281.484	281.51	-90.7912	0.0000000E+000	0.0000000E+000	0.0000000E+000	90.7912	0.0000000E+000	0.0000000E+000	0.0000000E+000	-90.7912	0.0000000E+000	0.0000000E+000	0.0000000E+000	0.791163	0.0000000E+000	0.0000000E+000	0.0000000E+000	-0.791163	72.4151	89.2088	-8.72117e-07
22806.6	11.459	-0.0527958	11.4591	0.263982	214.923	0.343173	-0.0056323	-132.178	-0.00280582	1	10	0.0103005	0.000898898	0	-2.67978e-05	0.0872661	-0.000402068	0.087267	-0.263982	-2.80585	608.984	608.99	-90.264	0.0000000E+000	0.0000000E+000	0.0000000E+000	90.264	0.0000000E+000	0.0000000E+000	0.0000000E+000	-90.264	0.0000000E+000	0.0000000E+000	0.0000000E+000	0.263982	0.0000000E+000	0.0000000E+000	0.0000000E+000	-0.263982	217.043	89.736	-1.15936e-07
10540.4	11.4632	-0.0105263	11.4632	0.0526129	215.767	0.343179	-0.00448988	-1434.46	-0.00120956	1	10	0.0101496	0.000885406	0	-2.8275e-05	0.0872359	-8.0106e-05	0.0872359	-0.0526129	-1.20955	1317.22	1317.22	-90.0526	0.0000000E+000	0.0000000E+000	0.0000000E+000	90.0526	0.0000000E+000	0.0000000E+000	0.0000000E+000	-90.0526	0.0000000E+000	0.0000000E+000	0.0000000E+000	0.0526129	0.0000000E+000	0.0000000E+000	0.0000000E+000	-0.0526129	1089.01	89.9474	-4.49669e-07
4871.56	11.4728	0.00145485	11.4728	-0.00726561	216.813	0.343197	-0.00253732	22456.1	0.000361105	1	10	0.0101764	0.000887004	0	-2.91575e-05	0.0871629	1.1053e-05	0.0871629	0.00726561	0.360984	2847.63	2847.63	-89.9927	0.0000000E+000	0.0000000E+000	0.0000000E+000	89.9927	0.0000000E+000	0.0000000E+000	0.0000000E+000	-89.9927	0.0000000E+000	0.0000000E+000	0.0000000E+000	-0.00726561	0.0000000E+000	0.0000000E+000	0.0000000E+000	0.00726561	7885.88	89.9927	4.35457e-07
2250.72	11.4628	0.00589087	11.4628	-0.0294449	217.744	0.343201	-0.00282105	12003.8	0.00317026	1	10	0.0104272	0.00090965	0	-3.02634e-05	0.0872385	4.48329e-05	0.0872385	0.0294449	3.16993	6168.89	6168.89	-89.9706	0.0000000E+000	0.0000000E+000	0.0000000E+000	89.9706	0.0000000E+000	0.0000000E+000	0.0000000E+000	-89.9706	0.0000000E+000	0.0000000E+000	0.0000000E+000	-0.0294449	0.0000000E+000	0.0000000E+000	0.0000000E+000	0.0294449	1945.86	89.9706	-1.10072e-06
1040.33	11.4535	0.0353877	11.4536	-0.177025	218.674	0.343195	-0.00226104	4323.1	0.0412685	1	10	0.010482	0.000915173	0	-3.09846e-05	0.0873086	0.000269756	0.087309	0.177025	41.2684	13356.9	13356.9	-89.823	0.0000000E+000	0.0000000E+000	0.0000000E+000	89.823	0.0000000E+000	0.0000000E+000	0.0000000E+000	-89.823	0.0000000E+000	0.0000000E+000	0.0000000E+000	-0.177025	0.0000000E+000	0.0000000E+000	0.0000000E+000	0.177025	323.658	89.823	3.72748e-07
480.769	11.4541	0.0288704	11.4541	-0.144416	219.604	0.343196	-0.00252052	11466.5	0.0728475	1	10	0.010483	0.000915218	0	-3.27495e-05	0.0873048	0.000220055	0.0873051	0.144416	72.848	28901.6	28901.7	-89.8556	0.0000000E+000	0.0000000E+000	0.0000000E+000	89.8556	0.0000000E+000	0.0000000E+000	0.0000000E+000	-89.8556	0.0000000E+000	0.0000000E+000	0.0000000E+000	-0.144416	0.0000000E+000	0.0000000E+000	0.0000000E+000	0.144416	396.741	89.8556	-8.43966e-07
222.061	11.4887	0.0964094	11.4891	-0.480797	220.528	0.343193	-0.00256905	7434.11	0.523477	1	10	0.0105122	0.00091497	0	-3.33664e-05	0.0870362	0.000730381	0.0870392	0.480797	523.477	62380.4	62382.6	-89.5192	0.0000000E+000	0.0000000E+000	0.0000000E+000	89.5192	0.0000000E+000	0.0000000E+000	0.0000000E+000	-89.5192	0.0000000E+000	0.0000000E+000	0.0000000E+000	-0.480797	0.0000000E+000	0.0000000E+000	0.0000000E+000	0.480797	119.165	89.5192	1.31537e-07
102.667	11.5155	0.183995	11.517	-0.915397	221.465	0.343193	-0.000924488	8425.21	2.15039	1	10	0.0105103	0.000912595	0	-3.34156e-05	0.0868173	0.00138717	0.0868283	0.915397	2150.39	134584	134601	-89.0846	0.0000000E+000	0.0000000E+000	0.0000000E+000	89.0846	0.0000000E+000	0.0000000E+000	0.0000000E+000	-89.0846	0.0000000E+000	0.0000000E+000	0.0000000E+000	-0.915397	0.0000000E+000	0.0000000E+000	0.0000000E+000	0.915397	62.5858	89.0846	3.4679e-07
47.4443	11.5812	0.330777	11.5859	-1.63601	222.377	0.343188	-0.0033512	10141.5	8.2663	1	10	0.0105173	0.000907767	0	-3.27606e-05	0.0862766	0.0024642	0.0863118	1.63601	8266.32	289420	289538	-88.364	0.0000000E+000	0.0000000E+000	0.0000000E+000	88.364	0.0000000E+000	0.0000000E+000	0.0000000E+000	-88.364	0.0000000E+000	0.0000000E+000	0.0000000E+000	-1.63601	0.0000000E+000	0.0000000E+000	0.0000000E+000	1.63601	35.012	88.364	4.35329e-07
21.9144	11.6316	0.598173	11.647	-2.94392	223.245	0.343175	-0.00462428	12141.2	32.0249	1	10	0.0105151	0.000902817	0	-3.24133e-05	0.0857457	0.00440959	0.085859	2.94392	32024.9	622733	623556	-87.0561	0.0000000E+000	0.0000000E+000	0.0000000E+000	87.0561	0.0000000E+000	0.0000000E+000	0.0000000E+000	-87.0561	0.0000000E+000	0.0000000E+000	0.0000000E+000	-2.94392	0.0000000E+000	0.0000000E+000	0.0000000E+000	2.94392	19.4453	87.0561	1.51702e-06
10.1329	11.7341	1.15907	11.7912	-5.64129	224.174	0.343187	-0.000420479	13551.1	130.943	1	10	0.0105293	0.000892978	0	-3.25973e-05	0.0843984	0.00833675	0.0848091	5.64129	130943	1.32562e+06	1.33207e+06	-84.3587	0.0000000E+000	0.0000000E+000	0.0000000E+000	84.3587	0.0000000E+000	0.0000000E+000	0.0000000E+000	-84.3587	0.0000000E+000	0.0000000E+000	0.0000000E+000	-5.64129	0.0000000E+000	0.0000000E+000	0.0000000E+000	5.64129	10.1237	84.3587	-1.20958e-06
4.68375	11.9043	2.29328	12.1232	-10.904	225.224	0.343191	-0.000571499	14817.3	530.208	1	11	0.010524	0.000868087	0	-2.1561e-05	0.080997	0.0156034	0.0824863	10.904	530208	2.7523e+06	2.8029e+06	-79.096	0.0000000E+000	0.0000000E+000	0.0000000E+000	79.096	0.0000000E+000	0.0000000E+000	0.0000000E+000	-79.096	0.0000000E+000	0.0000000E+000	0.0000000E+000	-10.904	0.0000000E+000	0.0000000E+000	0.0000000E+000	10.904	5.19097	79.096	1.03506e-05
2.16533	12.2574	4.53793	13.0704	-20.3156	226.937	0.3432	-8.1858e-05	16197.2	1952.43	1	11	0.0105352	0.000806035	0	-4.30095e-05	0.0717495	0.0265631	0.0765087	20.3156	1.95243e+06	5.2737e+06	5.62351e+06	-69.6844	0.0000000E+000	0.0000000E+000	0.0000000E+000	69.6844	0.0000000E+000	0.0000000E+000	0.0000000E+000	-69.6844	0.0000000E+000	0.0000000E+000	0.0000000E+000	-20.3156	0.0000000E+000	0.0000000E+000	0.0000000E+000	20.3156	2.70109	69.6844	-1.41028e-05
1.00006	12.5514	9.32013	15.6334	-36.5959	230.547	0.343199	0.00119924	17075.4	6068.87	1	11	0.0105384	0.000674097	0	-1.5332e-05	0.0513554	0.0381343	0.0639656	36.5959	6.06887e+06	8.17295e+06	1.01798e+07	-53.4041	0.0000000E+000	0.0000000E+000	0.0000000E+000	53.4041	0.0000000E+000	0.0000000E+000	0.0000000E+000	-53.4041	0.0000000E+000	0.0000000E+000	0.0000000E+000	-36.5959	0.0000000E+000	0.0000000E+000	0.0000000E+000	36.5959	1.3467	53.4041	2.48698e-05