File: ACS_Catal_2026/Figures_Na_K/main_figures/data/EC/20240126_2-102_Add_Na/20240201_2-102_006_K_elctrode6_C02.mpt
EC-Lab ASCII FILE
Nb header lines : 66

Cyclic Voltammetry Advanced

Run on channel : 2 (SN 66414)
User :
CE vs. WE compliance from -10 V to 10 V
Electrode connection : standard
Potential control : Ewe
Ewe ctrl range : min = -1.00 V, max = 1.00 V
Safety Limits :
	Do not start on E overload
Acquisition started on : 02/01/2024 14:47:58.407
Loaded Setting File :  C:\Users\NakamuraT\Documents\EC-Lab\Data\Yatsuzuka\20240126_2-102_Add_Na\20240125_2-102_010_K_elctrode4.mps
Saved on :
	File : 20240201_2-102_006_K_elctrode6_C02.mpr
	Directory : C:\Users\NakamuraT\Documents\EC-Lab\Data\Yatsuzuka\20240126_2-102_Add_Na\
	Host : 192.109.209.100
Device : SP-150e (SN .003411)
Address : 192.109.209.236
EC-Lab for windows v11.50 (software)
Internet server v11.50 (firmware)
Command interpretor v11.50 (firmware)
Electrode material :
Initial state :
Electrolyte :
Comments :
Electrode surface area : 0.001 cm2
Characteristic mass : 0.001 g
Equivalent Weight : 0.000 g/eq.
Density : 0.000 g/cm3
Volume (V) : 0.001 cm3
Cycle Definition : Charge/Discharge alternance
Ei (V)              0.450
vs.                 Ref
ti (h:m:s)          0:00:10.0000
dti (s)             0.0000
dE/dt               5.000
dE/dt unit          mV/s
E1 (V)              0.700
vs.                 Ref
t1 (h:m:s)          0:00:0.0000
dt1 (s)             0.1000
Step percent        50
N                   10
E range min (V)     -1.000
E range max (V)     1.000
I Range             10 mA
I Range min         Unset
I Range max         Unset
I Range init        Unset
Bandwidth           5
E2 (V)              0.450
vs.                 Ref
t2 (h:m:s)          0:00:0.0000
dt2 (s)             0.1000
nc cycles           14
nr                  1
Reverse Scan        0
Ef (V)              0.000
vs.                 Eoc
tf (h:m:s)          0:00:0.0000
dtf (s)             0.1000

mode	ox/red	error	control changes	Ns changes	counter inc.	time/s	control/V	Ewe/V	<I>/mA	cycle number	(Q-Qo)/C	I Range	Ns	step time/s	P/W
2	1	0	1	0	0	0.000000000000000E+000	0.44995	0.450228	0.0105997	1	0.0000000E+000	11	0	0.000000000000000E+000	4.77228e-06
2	1	0	1	0	0	12.3566	0.511733	0.512032	0.165037	1	0.00163398	11	0	12.3016	8.45045e-05
2	1	0	0	0	0	24.7584	0.573742	0.574025	0.473009	1	0.00498711	11	0	24.7034	0.000271519
2	1	0	0	0	0	37.16	0.63575	0.636015	2.01595	1	0.0186495	11	0	37.105	0.00128217
2	1	0	1	0	0	49.5618	0.697759	0.698016	4.9053	1	0.0606781	11	0	49.5068	0.00342398
2	1	0	0	0	0	61.7716	0.641151	0.641395	1.99491	1	0.103026	11	0	61.7166	0.00127952
2	1	0	1	0	0	74.1734	0.579143	0.579371	0.267008	1	0.115137	11	0	74.1184	0.000154697
2	0	0	1	0	0	86.575	0.517134	0.517344	-0.0621013	1	0.115666	11	0	5.4008	-3.21277e-05
2	0	0	0	0	0	98.9768	0.455125	0.455401	-0.101765	1	0.114591	11	0	17.8026	-4.6344e-05
2	1	0	0	0	1	111.253	0.506282	0.506538	0.103094	2	0.115545	11	0	10.9014	5.22209e-05
2	1	0	1	0	1	123.655	0.568291	0.568494	0.273932	2	0.117451	11	0	23.3032	0.000155729
2	1	0	1	0	1	136.057	0.630299	0.630501	1.59201	2	0.12714	11	0	35.7049	0.00100376
2	1	0	0	0	1	148.459	0.692308	0.692529	4.44122	2	0.163558	11	0	48.1066	0.00307567
2	1	0	1	0	1	160.658	0.646652	0.646972	2.11118	2	0.207042	11	0	60.3064	0.00136588
2	1	0	0	0	1	173.06	0.584643	0.584901	0.298563	2	0.220026	11	0	72.7082	0.00017463
2	0	0	0	0	1	185.462	0.522635	0.522886	-0.0578805	2	0.220721	11	0	4.9006	-3.02649e-05
2	0	0	1	0	1	197.864	0.460626	0.460875	-0.100973	2	0.219679	11	0	17.3024	-4.65359e-05
2	1	0	0	0	0	210.14	0.500782	0.501078	0.0968496	3	0.220377	11	0	9.8014	4.85292e-05
2	1	0	0	0	0	222.542	0.56279	0.563069	0.215595	3	0.222006	11	0	22.203	0.000121395
2	1	0	1	0	0	234.944	0.624799	0.625022	1.33042	3	0.229793	11	0	34.6048	0.000831545
2	1	0	1	0	0	247.345	0.686807	0.687052	4.06621	3	0.262032	11	0	47.0064	0.0027937
2	1	0	1	0	0	259.545	0.652152	0.652425	2.29233	3	0.306744	11	0	59.2063	0.00149557
2	1	0	1	0	0	271.947	0.590144	0.590368	0.359024	3	0.321078	11	0	71.608	0.000211956
2	0	0	0	0	0	284.349	0.528135	0.528362	-0.0527273	3	0.322086	11	0	4.1006	-2.78591e-05
2	0	0	0	0	0	296.75	0.466127	0.466414	-0.0982455	3	0.321086	11	0	16.5022	-4.58231e-05
2	1	0	1	0	1	309.027	0.495281	0.495522	0.0931867	4	0.321553	11	0	8.8012	4.6176e-05
2	1	0	1	0	1	321.429	0.557289	0.557527	0.181652	4	0.323017	11	0	21.2028	0.000101276
2	1	0	0	0	1	333.831	0.619298	0.619548	1.12038	4	0.329389	11	0	33.6046	0.000694127
2	1	0	1	0	1	346.232	0.681307	0.681561	3.76656	4	0.358312	11	0	46.0064	0.00256714
2	1	0	0	0	1	358.432	0.657653	0.657875	2.50198	4	0.404632	11	0	58.2062	0.00164599
2	1	0	0	0	1	370.834	0.595645	0.595826	0.432651	4	0.420959	11	0	70.6078	0.000257785
2	0	0	1	0	1	383.236	0.533636	0.533862	-0.0435816	4	0.42235	11	0	3.2004	-2.32665e-05
2	0	0	1	0	1	395.637	0.471627	0.471871	-0.0962333	4	0.421398	11	0	15.6021	-4.54096e-05
2	1	0	0	0	0	407.914	0.48978	0.490069	0.0927421	5	0.421648	11	0	7.701	4.545e-05
2	1	0	1	0	0	420.316	0.551789	0.552014	0.155232	5	0.422998	11	0	20.1028	8.56901e-05
2	1	0	1	0	0	432.717	0.613797	0.614093	0.936168	5	0.428232	11	0	32.5044	0.000574895
2	1	0	0	0	0	445.119	0.675806	0.676052	3.44689	5	0.453872	11	0	44.9062	0.00233028
2	1	0	1	0	0	457.319	0.663154	0.663406	2.70021	5	0.500551	11	0	57.106	0.00179134
2	1	0	0	0	0	469.721	0.601146	0.601397	0.526341	5	0.518871	11	0	69.5078	0.00031654
2	0	0	0	0	0	482.122	0.539137	0.539396	-0.0338224	5	0.520755	11	0	2.3003	-1.82437e-05
2	0	0	1	0	0	494.524	0.477128	0.47735	-0.091074	5	0.519859	11	0	14.7021	-4.34742e-05
2	1	0	1	0	1	506.801	0.484279	0.484472	0.0906654	6	0.5199	11	0	6.6008	4.39248e-05
2	1	0	0	0	1	519.203	0.546288	0.546533	0.133976	6	0.521172	11	0	19.0026	7.32221e-05
2	1	0	0	0	1	531.604	0.608297	0.608553	0.773855	6	0.525471	11	0	31.4042	0.000470932
2	1	0	1	0	1	544.006	0.670305	0.670531	3.11346	6	0.547909	11	0	43.806	0.00208767
2	1	0	0	0	1	556.206	0.668655	0.668891	2.94573	6	0.594487	11	0	56.0058	0.00197037
2	1	0	1	0	1	568.608	0.606646	0.606877	0.625656	6	0.614923	11	0	68.4076	0.000379696
2	0	0	1	0	1	581.009	0.544638	0.544923	-0.0211105	6	0.617365	11	0	1.3002	-1.15036e-05
2	0	0	0	0	1	593.411	0.482629	0.482878	-0.0906551	6	0.616537	11	0	13.702	-4.37754e-05
2	1	0	1	0	0	605.688	0.478779	0.478998	0.0924154	7	0.616376	11	0	5.5008	4.42668e-05
2	1	0	1	0	0	618.089	0.540787	0.540992	0.120746	7	0.617592	11	0	17.9024	6.53226e-05
2	1	0	0	0	0	630.491	0.602796	0.603068	0.641738	7	0.621174	11	0	30.3042	0.000387012
2	1	0	0	0	0	642.893	0.664804	0.665019	2.82165	7	0.640853	11	0	42.7058	0.00187645
2	1	0	1	0	0	655.093	0.674156	0.674432	3.19377	7	0.687035	11	0	54.9056	0.00215398
2	1	0	0	0	0	667.494	0.612147	0.612399	0.737672	7	0.70975	11	0	67.3074	0.000451749
2	0	0	1	0	0	679.896	0.550139	0.550395	-0.00821412	7	0.71287	11	0	0.3002	-4.52101e-06
2	0	0	1	0	0	692.298	0.48813	0.488366	-0.0879771	7	0.712115	11	0	12.7018	-4.2965e-05
2	1	0	0	0	1	704.575	0.473278	0.473496	0.0891047	8	0.711756	11	0	4.4006	4.21907e-05
2	1	0	0	0	1	716.976	0.535286	0.535542	0.111968	8	0.712933	11	0	16.8022	5.99634e-05
2	1	0	1	0	1	729.378	0.597295	0.59754	0.528446	8	0.715932	11	0	29.204	0.000315768
2	1	0	0	0	1	741.78	0.659304	0.659567	2.53158	8	0.733013	11	0	41.6058	0.00166974
2	1	0	1	0	1	753.98	0.679656	0.679873	3.45965	8	0.778106	11	0	53.8056	0.00235212
2	1	0	1	0	1	766.381	0.617648	0.617908	0.877347	8	0.803379	11	0	66.2072	0.00054212
2	1	0	0	0	1	778.783	0.555639	0.555933	0.00930241	8	0.80731	11	0	78.609	5.17152e-06
2	0	0	0	0	1	791.185	0.493631	0.493848	-0.0841418	8	0.806645	11	0	11.7016	-4.15533e-05
2	1	0	1	0	0	803.461	0.467777	0.46797	0.0888108	9	0.806093	11	0	3.3004	4.15608e-05
2	1	0	0	0	0	815.863	0.529786	0.529986	0.102666	9	0.807244	11	0	15.7022	5.44117e-05
2	1	0	0	0	0	828.265	0.591794	0.592011	0.432166	9	0.809787	11	0	28.1038	0.000255847
2	1	0	1	0	0	840.667	0.653803	0.654052	2.26366	9	0.824545	11	0	40.5056	0.00148055
2	1	0	0	0	0	852.866	0.685157	0.685366	3.72885	9	0.867982	11	0	52.7054	0.00255563
2	1	0	1	0	0	865.268	0.623149	0.623408	1.01647	9	0.89585	11	0	65.1071	0.000633674
2	1	0	1	0	0	877.67	0.56114	0.561355	0.034325	9	0.900666	11	0	77.5088	1.92685e-05
2	0	0	0	0	0	890.072	0.499132	0.499327	-0.0798948	9	0.900108	11	0	10.7016	-3.98936e-05
2	1	0	0	0	1	902.348	0.462276	0.462536	0.0878359	10	0.899371	11	0	2.2002	4.06273e-05
2	1	0	1	0	1	914.75	0.524285	0.524518	0.09967	10	0.9005	11	0	14.602	5.22787e-05
2	1	0	1	0	1	927.152	0.586293	0.586515	0.355474	10	0.902686	11	0	27.0036	0.000208491
2	1	0	0	0	1	939.553	0.648302	0.648469	2.00582	10	0.915335	11	0	39.4054	0.00130071
2	1	0	1	0	1	951.753	0.690658	0.69094	3.9957	10	0.9565	11	0	51.6052	0.00276079
2	1	0	0	0	1	964.155	0.628649	0.628888	1.18196	10	0.98721	11	0	64.007	0.000743319
2	1	0	0	0	1	976.557	0.566641	0.566914	0.0610538	10	0.99309	11	0	76.4086	3.46123e-05
2	0	0	1	0	1	988.958	0.504632	0.504845	-0.0794881	10	0.992658	11	0	9.7014	-4.01291e-05
2	1	0	1	0	0	1001.24	0.456776	0.457024	0.0864265	11	0.991737	11	0	1.1001	3.9499e-05
2	1	0	0	0	0	1013.64	0.518784	0.518964	0.0937649	11	0.992852	11	0	13.5018	4.86607e-05
2	1	0	1	0	0	1026.04	0.580793	0.581036	0.296358	11	0.994755	11	0	25.9036	0.000172195
2	1	0	1	0	0	1038.44	0.642801	0.643053	1.76301	11	1.00553	11	0	38.3052	0.00113371
2	1	0	0	0	0	1050.64	0.696159	0.696415	4.28103	11	1.04397	11	0	50.505	0.00298137
2	1	0	1	0	0	1063.04	0.63415	0.634416	1.34276	11	1.07739	11	0	62.9068	0.000851867
2	1	0	0	0	0	1075.44	0.572142	0.572414	0.0933939	11	1.08442	11	0	75.3086	5.346e-05
2	0	0	0	0	0	1087.85	0.510133	0.510434	-0.0744856	11	1.08415	11	0	8.7012	-3.802e-05
2	0	0	1	0	1	1100.12	0.451275	0.451526	0.0153748	12	1.08307	11	0	0.000000000000000E+000	6.9421e-06
2	1	0	1	0	1	1112.52	0.513283	0.513516	0.0906933	12	1.08415	11	0	12.4016	4.65724e-05
2	1	0	0	0	1	1124.93	0.575292	0.575578	0.245052	12	1.08584	11	0	24.8034	0.000141047
2	1	0	1	0	1	1137.33	0.637301	0.637508	1.54149	12	1.09497	11	0	37.2051	0.000982715
2	1	0	1	0	1	1149.73	0.699309	0.699565	4.45399	12	1.13107	11	0	49.6068	0.00311585
2	1	0	0	0	1	1161.93	0.639651	0.639834	1.53592	12	1.16671	11	0	61.8066	0.000982733
2	1	0	1	0	1	1174.33	0.577642	0.577944	0.132882	12	1.17512	11	0	74.2084	7.67983e-05
2	0	0	1	0	1	1186.73	0.515634	0.515864	-0.0695979	12	1.17504	11	0	7.701	-3.59031e-05
2	0	0	0	0	1	1199.13	0.453625	0.453859	-0.0986173	12	1.17396	11	0	20.1028	-4.47583e-05
2	1	0	1	0	0	1211.41	0.507783	0.507936	0.0885638	13	1.17486	11	0	11.3016	4.49847e-05
2	1	0	1	0	0	1223.81	0.569791	0.570115	0.209546	13	1.17639	11	0	23.7032	0.000119465
2	1	0	0	0	0	1236.21	0.6318	0.632092	1.33493	13	1.1841	11	0	36.105	0.000843801
2	1	0	0	0	0	1248.62	0.693808	0.693991	4.14497	13	1.21679	11	0	48.5066	0.00287657
2	1	0	1	0	0	1260.82	0.645152	0.645409	1.74071	13	1.25524	11	0	60.7064	0.00112347
2	1	0	0	0	0	1273.22	0.583143	0.583382	0.183768	13	1.26521	11	0	73.1082	0.000107207
2	0	0	1	0	0	1285.62	0.521134	0.521345	-0.0642205	13	1.26537	11	0	6.601	-3.3481e-05
2	0	0	1	0	0	1298.02	0.459126	0.459414	-0.0980065	13	1.26433	11	0	19.0026	-4.50256e-05
2	1	0	0	0	1	1310.3	0.502282	0.502522	0.0883317	14	1.26502	11	0	10.2014	4.43886e-05
2	1	0	0	0	1	1322.7	0.56429	0.564542	0.178939	14	1.26642	11	0	22.603	0.000101019
2	1	0	1	0	1	1335.1	0.626299	0.626572	1.14804	14	1.27291	11	0	35.0048	0.000719332
2	1	0	1	0	1	1347.5	0.688307	0.688528	3.8337	14	1.30241	11	0	47.4065	0.00263961
2	1	0	1	0	1	1359.7	0.650652	0.650912	1.94877	14	1.34303	11	0	59.6064	0.00126847
2	1	0	1	0	1	1372.1	0.588644	0.58886	0.243432	14	1.35465	11	0	72.008	0.000143348
2	0	0	0	0	1	1384.51	0.526635	0.526907	-0.0615734	14	1.35509	11	0	5.6008	-3.24434e-05
2	0	0	0	0	1	1396.91	0.464627	0.464858	-0.0963365	14	1.35409	11	0	18.0024	-4.47828e-05
2	1	0	1	0	0	1409.18	0.496781	0.496979	0.0889936	15	1.35457	11	0	9.1012	4.42279e-05
2	1	0	0	0	0	1421.59	0.55879	0.559015	0.156148	15	1.35588	11	0	21.503	8.72889e-05
2	1	0	0	0	0	1433.99	0.620798	0.621041	0.973581	15	1.36131	11	0	33.9046	0.000604634
2	1	0	1	0	0	1446.39	0.682807	0.683061	3.52386	15	1.3877	11	0	46.3064	0.00240701
2	1	0	0	0	0	1458.59	0.656153	0.65639	2.15291	15	1.42959	11	0	58.5062	0.00141315
2	1	0	1	0	0	1470.99	0.594144	0.594443	0.311374	15	1.4429	11	0	70.9079	0.000185094
2	0	0	1	0	0	1483.39	0.532136	0.532392	-0.0536018	15	1.44369	11	0	4.5006	-2.85372e-05
2	0	0	0	0	0	1495.79	0.470127	0.470354	-0.093721	15	1.44272	11	0	16.9024	-4.40821e-05
2	0	0	1	0	0	1499.81	0.45	0.450209	-0.0938681	15	1.44233	11	0	20.9228	-4.22602e-05