File: ACS_Catal_2026/Figures_Na_K/main_figures/data/EC/20240517_2-140_kinetic_CA/20240517_2-140_kinetic_CA_K-1_07_CVA_C02.mpt
EC-Lab ASCII FILE
Nb header lines : 66

Cyclic Voltammetry Advanced

Run on channel : 2 (SN 68855)
User :
CE vs. WE compliance from -10 V to 10 V
Electrode connection : standard
Potential control : Ewe
"Ewe ctrl range : min = -1.00 V, max = 1.00 V"
Safety Limits :
	Do not start on E overload
Acquisition started on : 05/17/2024 15:55:37.422
Loaded Setting File :  C:\Users\HZ-7000\Documents\EC-Lab\Data\Yatsuzuka\20240517_2-140_kinetic_CA\20240517_2-140_kinetic_CA_K-1_r.mps
Saved on :
	File : 20240517_2-140_kinetic_CA_K-1_07_CVA_C02.mpr
	Directory : C:\Users\HZ-7000\Documents\EC-Lab\Data\Yatsuzuka\20240517_2-140_kinetic_CA\
	Host : 192.109.209.100
Device : SP-150e (SN .003466)
Address : 192.109.209.128
EC-Lab for windows v11.50 (software)
Internet server v11.50 (firmware)
Command interpretor v11.50 (firmware)
Electrode material :
Initial state :
Electrolyte :
Comments :
Electrode surface area : 0.001 cm2
Characteristic mass : 0.001 g
Equivalent Weight : 0.000 g/eq.
Density : 0.000 g/cm3
Volume (V) : 0.001 cm3
Cycle Definition : Charge/Discharge alternance
Ei (V)              0.000
vs.                 Ref
ti (h:m:s)          0:00:10.0000
dti (s)             0.0000
dE/dt               5.000
dE/dt unit          mV/s
E1 (V)              0.700
vs.                 Ref
t1 (h:m:s)          0:00:0.0000
dt1 (s)             0.1000
Step percent        50
N                   10
E range min (V)     -1.000
E range max (V)     1.000
I Range             Auto
I Range min         Unset
I Range max         Unset
I Range init        Unset
Bandwidth           5
E2 (V)              0.000
vs.                 Ref
t2 (h:m:s)          0:00:0.0000
dt2 (s)             0.1000
nc cycles           0
nr                  1
Reverse Scan        1
Ef (V)              0.350
vs.                 Ref
tf (h:m:s)          0:00:0.0000
dtf (s)             0.1000

mode	ox/red	error	control changes	Ns changes	counter inc.	time/s	control/V	Ewe/V	<I>/mA	cycle number	(Q-Qo)/C	I Range	Ns	step time/s	P/W
2	0	0	0	0	0	3198.35	8.73685e-06	-1.01E-03	-8.07E-03	1	0.0000000E+000	13	0	0.000000000000000E+000	8.18934e-09
2	1	0	1	0	0	3200.7	0.0117504	0.010834	0.0841374	1	0.000151441	13	0	2.2969	9.11545e-07
2	1	0	1	0	0	3203.1	0.0237345	0.0228149	0.0903653	1	0.000361342	13	0	4.6937	2.06167e-06
2	1	0	0	0	0	3205.49	0.0357179	0.0347735	0.0926696	1	0.000580623	13	0	7.0904	3.22244e-06
2	1	0	0	0	0	3207.89	0.0477017	0.0467326	0.0952793	1	0.000806729	13	0	9.4872	4.45265e-06
2	1	0	1	0	0	3210.29	0.0596853	0.0587552	0.100128	1	0.00104094	13	0	11.8839	5.88301e-06
2	1	0	1	0	0	3212.68	0.0716694	0.0706902	0.104627	1	0.00128554	13	0	14.2807	7.39612e-06
2	1	0	1	0	0	3215.11	0.0838029	0.0828667	0.110798	1	0.00154628	12	0	16.7074	9.18143e-06
2	1	0	1	0	0	3217.51	0.0957862	0.0948254	0.115861	1	0.00181773	12	0	19.1041	1.09866e-05
2	1	0	1	0	0	3219.9	0.10777	0.106803	0.121003	1	0.00210306	12	0	21.5009	1.29235e-05
2	1	0	1	0	0	3222.3	0.119754	0.118828	0.126302	1	0.00239984	12	0	23.8977	1.50082e-05
2	1	0	0	0	0	3224.7	0.131738	0.130804	0.131786	1	0.00270822	12	0	26.2944	1.72381e-05
2	1	0	0	0	0	3227.09	0.143722	0.14283	0.13627	1	0.00303023	12	0	28.6912	1.94634e-05
2	1	0	1	0	0	3229.49	0.155705	0.15476	0.139232	1	0.00336224	12	0	31.0879	2.15475e-05
2	1	0	1	0	0	3231.89	0.167689	0.166773	0.137853	1	0.00369539	12	0	33.4847	2.29902e-05
2	1	0	1	0	0	3234.28	0.179673	0.17877	0.127435	1	0.00401449	12	0	35.8815	2.27816e-05
2	1	0	1	0	0	3236.68	0.191657	0.190744	0.116303	1	0.00430665	12	0	38.2782	2.21842e-05
2	1	0	1	0	0	3239.08	0.203641	0.202743	0.110465	1	0.00457774	12	0	40.675	2.2396e-05
2	1	0	1	0	0	3241.47	0.215624	0.214703	0.105529	1	0.00483534	12	0	43.0717	2.26574e-05
2	1	0	1	0	0	3243.87	0.227608	0.226714	0.100615	1	0.00508308	12	0	45.4685	2.28108e-05
2	1	0	1	0	0	3246.27	0.239592	0.238663	0.0974831	1	0.00532023	12	0	47.8653	2.32656e-05
2	1	0	0	0	0	3248.66	0.251576	0.250648	0.0927212	1	0.00554803	12	0	50.262	2.32403e-05
2	1	0	0	0	0	3251.06	0.26356	0.262652	0.0885214	1	0.00576592	12	0	52.6588	2.32504e-05
2	1	0	1	0	0	3253.46	0.275543	0.274644	0.085398	1	0.00597442	12	0	55.0555	2.3454e-05
2	1	0	1	0	0	3255.85	0.287527	0.286609	0.0804454	1	0.00617343	12	0	57.4523	2.30564e-05
2	1	0	1	0	0	3258.25	0.299511	0.298602	0.0778204	1	0.00636359	12	0	59.8491	2.32373e-05
2	1	0	1	0	0	3260.65	0.311495	0.310567	0.0731274	1	0.00654434	12	0	62.2458	2.2711e-05
2	1	0	1	0	0	3263.04	0.323479	0.322621	0.0699783	1	0.00671632	12	0	64.6426	2.25765e-05
2	1	0	1	0	0	3265.44	0.335462	0.33457	0.0664001	1	0.00687952	12	0	67.0393	2.22155e-05
2	1	0	1	0	0	3267.84	0.347446	0.346529	0.063104	1	0.00703532	12	0	69.4361	2.18673e-05
2	1	0	0	0	0	3270.23	0.35943	0.358554	0.0608105	1	0.00718348	12	0	71.8328	2.18039e-05
2	1	0	0	0	0	3272.63	0.371414	0.370547	0.0574456	1	0.00732508	12	0	74.2296	2.12863e-05
2	1	0	1	0	0	3275.03	0.383397	0.382499	0.0550186	1	0.00746094	12	0	76.6263	2.10446e-05
2	1	0	1	0	0	3277.43	0.395381	0.394497	0.0537136	1	0.0075914	12	0	79.0231	2.11899e-05
2	1	0	1	0	0	3279.82	0.407365	0.406496	0.0518738	1	0.00771711	12	0	81.4199	2.10865e-05
2	1	0	1	0	0	3282.22	0.419349	0.41846	0.0496497	1	0.00783838	12	0	83.8166	2.07764e-05
2	1	0	1	0	0	3284.65	0.431482	0.430596	0.0481714	1	0.00795726	13	0	86.2433	2.07424e-05
2	1	0	1	0	0	3287.04	0.443466	0.442586	0.046467	1	0.00807114	13	0	88.6401	2.05657e-05
2	1	0	1	0	0	3289.44	0.45545	0.454568	0.0464631	1	0.0081823	13	0	91.0369	2.11206e-05
2	1	0	0	0	0	3291.84	0.467434	0.466569	0.0451176	1	0.00829115	13	0	93.4336	2.10505e-05
2	1	0	0	0	0	3294.23	0.479418	0.478537	0.0439472	1	0.00839834	13	0	95.8304	2.10304e-05
2	1	0	1	0	0	3296.63	0.491401	0.490561	0.0439621	1	0.00850429	13	0	98.2271	2.15661e-05
2	1	0	1	0	0	3299.03	0.503385	0.502502	0.0442156	1	0.00860933	13	0	100.624	2.22184e-05
2	1	0	1	0	0	3301.42	0.515369	0.514555	0.0436798	1	0.00871426	13	0	103.021	2.24756e-05
2	1	0	1	0	0	3303.82	0.527353	0.526464	0.0443403	1	0.00882037	13	0	105.417	2.33435e-05
2	1	0	1	0	0	3306.22	0.539336	0.538514	0.046537	1	0.00892899	13	0	107.814	2.50608e-05
2	1	0	1	0	0	3308.61	0.55132	0.55049	0.0492439	1	0.00904247	13	0	110.211	2.71083e-05
2	1	0	1	0	0	3311.01	0.563304	0.562471	0.0533445	1	0.00916477	13	0	112.608	3.00048e-05
2	1	0	1	0	0	3313.41	0.575288	0.574462	0.0619386	1	0.00930279	13	0	115.004	3.55814e-05
2	1	0	0	0	0	3315.8	0.587272	0.586447	0.0771548	1	0.00946797	13	0	117.401	4.52472e-05
2	1	0	0	0	0	3318.2	0.599255	0.598408	0.102673	1	0.00968	13	0	119.798	6.14404e-05
2	1	0	1	0	0	3320.63	0.611389	0.61055	0.147273	1	0.00997809	12	0	122.225	8.99173e-05
2	1	0	1	0	0	3323.02	0.623373	0.622508	0.219257	1	0.0104109	12	0	124.621	0.000136489
2	1	0	1	0	0	3325.42	0.635357	0.634542	0.330639	1	0.0110624	12	0	127.018	0.000209804
2	1	0	1	0	0	3327.82	0.64734	0.646474	0.485999	1	0.0120327	12	0	129.415	0.000314186
2	1	0	1	0	0	3330.21	0.659324	0.65846	0.681196	1	0.0134251	12	0	131.812	0.00044854
2	1	0	1	0	0	3332.61	0.671308	0.67046	0.917357	1	0.0153338	12	0	134.208	0.000615052
2	1	0	0	0	0	3335.04	0.683441	0.682633	1.18811	1	0.0178868	11	0	136.635	0.000811044
2	1	0	1	0	0	3337.43	0.695425	0.69457	1.47333	1	0.0210718	11	0	139.032	0.00102333
2	1	0	0	0	0	3339.61	0.693678	0.692836	1.40263	1	0.0243453	11	0	141.205	0.000971792
2	1	0	1	0	0	3342	0.681694	0.680867	1.10899	1	0.0273435	11	0	143.602	0.000755074
2	1	0	1	0	0	3344.4	0.66971	0.668849	0.845904	1	0.0296848	11	0	145.999	0.000565782
2	1	0	1	0	0	3346.8	0.657726	0.656866	0.612845	1	0.0314241	11	0	148.395	0.000402558
2	1	0	1	0	0	3349.22	0.645593	0.644734	0.411825	1	0.0326588	12	0	150.822	0.000265518
2	1	0	1	0	0	3351.62	0.633609	0.632779	0.261649	1	0.0334567	12	0	153.219	0.000165566
2	1	0	1	0	0	3354.02	0.621625	0.620749	0.151229	1	0.0339429	12	0	155.616	9.38753e-05
2	1	0	0	0	0	3356.41	0.609641	0.608766	0.0770278	1	0.0342095	12	0	158.012	4.68919e-05
2	1	0	1	0	0	3358.84	0.597508	0.596648	0.0321128	1	0.0343379	13	0	160.439	1.916e-05
2	1	0	1	0	0	3361.24	0.585524	0.584662	0.00781331	1	0.0343831	13	0	162.836	4.56815e-06
2	0	0	1	0	0	3363.63	0.57354	0.572682	-7.31E-03	1	0.0343816	13	0	1.1984	-4.18E-06
2	0	0	0	0	0	3366.03	0.561556	0.560712	-1.57E-02	1	0.0343537	13	0	3.5951	-8.80E-06
2	0	0	0	0	0	3368.43	0.549573	0.548702	-2.05E-02	1	0.0343098	13	0	5.9919	-1.12E-05
2	0	0	1	0	0	3370.82	0.537589	0.536745	-2.39E-02	1	0.0342556	13	0	8.3886	-1.28E-05
2	0	0	1	0	0	3373.22	0.525605	0.524743	-2.71E-02	1	0.0341947	13	0	10.7854	-1.42E-05
2	0	0	1	0	0	3375.62	0.513621	0.51277	-2.79E-02	1	0.0341293	13	0	13.1822	-1.43E-05
2	0	0	1	0	0	3378.02	0.501638	0.500767	-2.91E-02	1	0.0340607	13	0	15.5789	-1.46E-05
2	0	0	1	0	0	3380.41	0.489654	0.488816	-3.07E-02	1	0.0339896	13	0	17.9757	-1.50E-05
2	0	0	1	0	0	3382.81	0.47767	0.476824	-3.12E-02	1	0.0339161	13	0	20.3724	-1.49E-05
2	0	0	1	0	0	3385.21	0.465686	0.464793	-3.17E-02	1	0.0338401	13	0	22.7692	-1.47E-05
2	0	0	1	0	0	3387.6	0.453702	0.452838	-3.37E-02	1	0.0337621	13	0	25.166	-1.53E-05
2	0	0	1	0	0	3390	0.441719	0.440787	-3.42E-02	1	0.0336817	13	0	27.5627	-1.51E-05
2	0	0	1	0	0	3392.4	0.429735	0.428835	-3.50E-02	1	0.0335986	13	0	29.9595	-1.50E-05
2	0	0	1	0	0	3394.79	0.417751	0.416863	-3.68E-02	1	0.0335124	13	0	32.3562	-1.54E-05
2	0	0	1	0	0	3397.19	0.405767	0.404901	-3.84E-02	1	0.0334234	13	0	34.753	-1.55E-05
2	0	0	1	0	0	3399.59	0.393783	0.392912	-3.91E-02	1	0.0333307	13	0	37.1498	-1.54E-05
2	0	0	0	0	0	3401.98	0.3818	0.380895	-4.10E-02	1	0.033234	13	0	39.5465	-1.56E-05
2	0	0	1	0	0	3404.38	0.369816	0.368937	-4.36E-02	1	0.0331329	13	0	41.9432	-1.61E-05
2	0	0	1	0	0	3406.78	0.357832	0.356913	-4.56E-02	1	0.0330273	13	0	44.34	-1.63E-05
2	0	0	1	0	0	3409.17	0.345848	0.344953	-4.71E-02	1	0.0329166	13	0	46.7368	-1.63E-05
2	0	0	0	0	0	3411.57	0.333864	0.332974	-4.98E-02	1	0.0327999	13	0	49.1335	-1.66E-05
2	0	0	0	0	0	3413.97	0.321881	0.320975	-5.30E-02	1	0.032677	13	0	51.5303	-1.70E-05
2	0	0	1	0	0	3416.36	0.309897	0.308982	-5.59E-02	1	0.0325477	13	0	53.927	-1.73E-05
2	0	0	1	0	0	3418.76	0.297913	0.297027	-5.82E-02	1	0.0324111	13	0	56.3238	-1.73E-05
2	0	0	1	0	0	3421.16	0.285929	0.285044	-6.15E-02	1	0.0322668	13	0	58.7206	-1.75E-05
2	0	0	0	0	0	3423.55	0.273946	0.273039	-6.53E-02	1	0.032115	13	0	61.1173	-1.78E-05
2	0	0	1	0	0	3425.95	0.261962	0.261078	-6.89E-02	1	0.0319551	13	0	63.5141	-1.80E-05
2	0	0	1	0	0	3428.35	0.249978	0.24908	-7.16E-02	1	0.0317868	13	0	65.9108	-1.78E-05
2	0	0	1	0	0	3430.74	0.237994	0.237104	-7.58E-02	1	0.0316098	13	0	68.3076	-1.80E-05
2	0	0	1	0	0	3433.14	0.22601	0.225106	-8.00E-02	1	0.0314239	13	0	70.7044	-1.80E-05
2	0	0	1	0	0	3435.54	0.214027	0.213108	-8.38E-02	1	0.0312286	13	0	73.1011	-1.79E-05
2	0	0	1	0	0	3437.93	0.202043	0.201089	-8.77E-02	1	0.0310229	13	0	75.4979	-1.76E-05
2	0	0	1	0	0	3440.33	0.190059	0.189128	-9.38E-02	1	0.0308055	13	0	77.8946	-1.77E-05
2	0	0	1	0	0	3442.73	0.178075	0.177208	-1.02E-01	1	0.0305729	13	0	80.2914	-1.80E-05
2	0	0	0	0	0	3445.15	0.165942	0.165024	-1.13E-01	1	0.0303139	12	0	82.7181	-1.87E-05
2	0	0	1	0	0	3447.55	0.153958	0.153051	-1.25E-01	1	0.0300275	12	0	85.1149	-1.91E-05
2	0	0	1	0	0	3449.95	0.141974	0.141069	-1.35E-01	1	0.0297151	12	0	87.5116	-1.90E-05
2	0	0	1	0	0	3452.34	0.12999	0.129083	-1.37E-01	1	0.0293888	12	0	89.9084	-1.77E-05
2	0	0	0	0	0	3454.74	0.118007	0.117105	-1.37E-01	1	0.0290607	12	0	92.3051	-1.60E-05
2	0	0	0	0	0	3457.14	0.106023	0.105107	-1.37E-01	1	0.028732	12	0	94.7019	-1.44E-05
2	0	0	1	0	0	3459.53	0.0940395	0.0930797	-1.37E-01	1	0.0284035	12	0	97.0986	-1.28E-05
2	0	0	1	0	0	3461.93	0.0820553	0.0810991	-1.37E-01	1	0.0280744	12	0	99.4954	-1.11E-05
2	0	0	1	0	0	3464.33	0.0700712	0.069131	-1.36E-01	1	0.0277468	12	0	101.892	-9.40E-06
2	0	0	0	0	0	3466.73	0.0580877	0.0571521	-1.34E-01	1	0.027423	12	0	104.289	-7.69E-06
2	0	0	0	0	0	3469.12	0.0461039	0.0452259	-1.34E-01	1	0.0271033	12	0	106.686	-6.04E-06
2	0	0	1	0	0	3471.52	0.0341204	0.0331345	-1.33E-01	1	0.0267844	12	0	109.082	-4.39E-06
2	0	0	1	0	0	3473.92	0.0221363	0.0212004	-1.35E-01	1	0.0264645	12	0	111.479	-2.86E-06
2	0	0	1	0	0	3476.31	0.0101522	0.00920285	-1.39E-01	1	0.026137	12	0	113.876	-1.28E-06
2	0	0	0	0	0	3478.34	8.73685e-06	-9.57E-04	-1.42E-01	1	0.0258519	12	0	115.901	1.36365e-07