File: ACS_Catal_2026/Figures_Na_K/main_figures/data/EC/20240517_2-140_kinetic_CA/20240517_2-140_kinetic_CA_K-1_02_PEIS_C02.mpt
EC-Lab ASCII FILE
Nb header lines : 63

Potentio Electrochemical Impedance Spectroscopy

Run on channel : 2 (SN 68855)
User :
CE vs. WE compliance from -10 V to 10 V
Electrode connection : standard
Potential control : Ewe
Ewe ctrl range : min = -1.00 V, max = 1.00 V
Safety Limits :
	Do not start on E overload
Acquisition started on : 05/17/2024 15:55:37.422
Loaded Setting File :  C:\Users\HZ-7000\Documents\EC-Lab\Data\Yatsuzuka\20240517_2-140_kinetic_CA\20240517_2-140_kinetic_CA_K-1_r.mps
Saved on :
	File : 20240517_2-140_kinetic_CA_K-1_02_PEIS_C02.mpr
	Directory : C:\Users\HZ-7000\Documents\EC-Lab\Data\Yatsuzuka\20240517_2-140_kinetic_CA\
	Host : 192.109.209.100
Device : SP-150e (SN .003466)
Address : 192.109.209.128
EC-Lab for windows v11.50 (software)
Internet server v11.50 (firmware)
Command interpretor v11.50 (firmware)
Electrode material :
Initial state :
Electrolyte :
Comments :
Electrode surface area : 0.001 cm2
Characteristic mass : 0.001 g
Equivalent Weight : 0.000 g/eq.
Density : 0.000 g/cm3
Volume (V) : 0.001 cm3
Cycle Definition : Charge/Discharge alternance
Mode                Single sine
E (V)               0.4500
vs.                 Ref
tE (h:m:s)          0:00:0.0000
record              0
dI                  0.000
unit dI             mA
dt (s)              0.000
fi                  500.000
unit fi             kHz
ff                  1.000
unit ff             Hz
Nd                  6
Points              per decade
spacing             Logarithmic
Va (mV)             10.0
pw                  0.10
Na                  2
corr                0
E range min (V)     -1.000
E range max (V)     1.000
I Range             Auto
Bandwidth           5
nc cycles           0
goto Ns'            0
nr cycles           0
inc. cycle          0

freq/Hz	Re(Z)/Ohm	-Im(Z)/Ohm	|Z|/Ohm	Phase(Z)/deg	time/s	<Ewe>/V	<I>/mA	Cs/uF	Cp/uF	cycle number	I Range	|Ewe|/V	|I|/A	Ns	(Q-Qo)/mA.h	Re(Y)/Ohm-1	Im(Y)/Ohm-1	|Y|/Ohm-1	Phase(Y)/deg	Re(C)/nF	Im(C)/nF	|C|/nF	Phase(C)/deg	Re(M)	Im(M)	|M|	Phase(M)/deg	Re(Permittivity)	Im(Permittivity)	|Permittivity|	Phase(Permittivity)/deg	Re(Resistivity)/Ohm.cm	Im(Resistivity)/Ohm.cm	|Resistivity|/Ohm.cm	Phase(Resistivity)/deg	Re(Conductivity)/mS/cm	Im(Conductivity)/mS/cm	|Conductivity|/mS/cm	Phase(Conductivity)/deg	Tan(Delta)	Loss Angle(Delta)/deg	dq/mA.h
500019	40.6558	0.982926	40.6677	-1.38496	200.48	0.449421	0.308423	0.323827	0.000189172	1	11	0.00887814	0.00021831	0	0.000133621	0.0245824	0.000594323	0.0245896	1.38496	0.189172	7.82452	7.82681	-88.615	0.0000000E+000	0.0000000E+000	0.0000000E+000	88.615	0.0000000E+000	0.0000000E+000	0.0000000E+000	-88.615	0.0000000E+000	0.0000000E+000	0.0000000E+000	-1.38496	0.0000000E+000	0.0000000E+000	0.0000000E+000	1.38496	41.362	88.615	0.000133621
231063	27.2488	-1.51276	27.2908	3.1776	201.763	0.449081	0.0475115	-0.455324	-0.00139904	1	10	0.0108853	0.000398865	0	0.000159932	0.0365861	-0.00203113	0.0366424	-3.1776	-1.39904	25.2003	25.2391	-93.1776	0.0000000E+000	0.0000000E+000	0.0000000E+000	93.1776	0.0000000E+000	0.0000000E+000	0.0000000E+000	-93.1776	0.0000000E+000	0.0000000E+000	0.0000000E+000	3.1776	0.0000000E+000	0.0000000E+000	0.0000000E+000	-3.1776	18.0127	86.8224	5.91108e-06
106786	25.2672	-0.388191	25.2702	0.880191	202.744	0.449078	0.0413268	-3.83936	-0.000906011	1	10	0.0106394	0.000421026	0	0.000170269	0.0395677	-0.000607896	0.0395723	-0.880191	-0.906008	58.9719	58.9789	-90.8802	0.0000000E+000	0.0000000E+000	0.0000000E+000	90.8802	0.0000000E+000	0.0000000E+000	0.0000000E+000	-90.8802	0.0000000E+000	0.0000000E+000	0.0000000E+000	0.880191	0.0000000E+000	0.0000000E+000	0.0000000E+000	-0.880191	65.0896	89.1198	5.03595e-06
49352.4	24.9836	-0.114335	24.9838	0.262208	203.588	0.449082	0.0390519	-28.2054	-0.00059071	1	10	0.010396	0.000416109	0	0.000178513	0.0400255	-0.000183173	0.0400259	-0.262208	-0.590709	129.077	129.078	-90.2622	0.0000000E+000	0.0000000E+000	0.0000000E+000	90.2622	0.0000000E+000	0.0000000E+000	0.0000000E+000	-90.2622	0.0000000E+000	0.0000000E+000	0.0000000E+000	0.262208	0.0000000E+000	0.0000000E+000	0.0000000E+000	-0.262208	218.512	89.7378	4.2164e-06
22806.6	24.8839	-0.0632992	24.884	0.145747	204.432	0.449079	0.0370065	-110.246	-0.000713375	1	10	0.0102508	0.000411945	0	0.000186332	0.0401863	-0.000102225	0.0401864	-0.145747	-0.713359	280.439	280.44	-90.1457	0.0000000E+000	0.0000000E+000	0.0000000E+000	90.1457	0.0000000E+000	0.0000000E+000	0.0000000E+000	-90.1457	0.0000000E+000	0.0000000E+000	0.0000000E+000	0.145747	0.0000000E+000	0.0000000E+000	0.0000000E+000	-0.145747	393.116	89.8543	4.18128e-06
10540.4	24.8765	0.0120911	24.8765	-0.0278484	205.14	0.449083	0.0362265	1248.81	0.00029502	1	10	0.010696	0.000429964	0	0.00019334	0.0401986	1.95384e-05	0.0401986	0.0278484	0.295009	606.98	606.98	-89.9722	0.0000000E+000	0.0000000E+000	0.0000000E+000	89.9722	0.0000000E+000	0.0000000E+000	0.0000000E+000	-89.9722	0.0000000E+000	0.0000000E+000	0.0000000E+000	-0.0278484	0.0000000E+000	0.0000000E+000	0.0000000E+000	0.0278484	2057.42	89.9722	2.89363e-06
4871.56	24.8935	0.0101175	24.8935	-0.0232867	206.186	0.449107	0.0353773	3229.09	0.000533397	1	10	0.0100278	0.000402829	0	0.000203078	0.040171	1.63267e-05	0.0401711	0.0232867	0.533356	1312.4	1312.4	-89.9767	0.0000000E+000	0.0000000E+000	0.0000000E+000	89.9767	0.0000000E+000	0.0000000E+000	0.0000000E+000	-89.9767	0.0000000E+000	0.0000000E+000	0.0000000E+000	-0.0232867	0.0000000E+000	0.0000000E+000	0.0000000E+000	0.0232867	2460.45	89.9767	6.80514e-06
2250.72	24.8684	0.0128717	24.8684	-0.0296558	207.116	0.449114	0.0343789	5493.68	0.00147176	1	10	0.0101201	0.000406948	0	0.000211831	0.0402116	2.08132e-05	0.0402117	0.0296558	1.47174	2843.48	2843.48	-89.9703	0.0000000E+000	0.0000000E+000	0.0000000E+000	89.9703	0.0000000E+000	0.0000000E+000	0.0000000E+000	-89.9703	0.0000000E+000	0.0000000E+000	0.0000000E+000	-0.0296558	0.0000000E+000	0.0000000E+000	0.0000000E+000	0.0296558	1932.02	89.9703	4.0202e-06
1040.33	24.89	0.0288776	24.8901	-0.0664748	208.046	0.449114	0.0337612	5297.7	0.0071311	1	10	0.010134	0.00040715	0	0.0002202	0.0401767	4.66131e-05	0.0401767	0.0664748	7.13111	6146.41	6146.41	-89.9335	0.0000000E+000	0.0000000E+000	0.0000000E+000	89.9335	0.0000000E+000	0.0000000E+000	0.0000000E+000	-89.9335	0.0000000E+000	0.0000000E+000	0.0000000E+000	-0.0664748	0.0000000E+000	0.0000000E+000	0.0000000E+000	0.0664748	861.917	89.9335	4.3969e-06
480.769	24.8739	0.0968609	24.8741	-0.223113	208.976	0.449113	0.0326937	3417.71	0.0518249	1	10	0.0101445	0.000407835	0	0.000228141	0.0402022	0.000156551	0.0402025	0.223113	51.825	13308.6	13308.7	-89.7769	0.0000000E+000	0.0000000E+000	0.0000000E+000	89.7769	0.0000000E+000	0.0000000E+000	0.0000000E+000	-89.7769	0.0000000E+000	0.0000000E+000	0.0000000E+000	-0.223113	0.0000000E+000	0.0000000E+000	0.0000000E+000	0.223113	256.8	89.7769	3.91191e-06
222.061	24.8663	0.195428	24.8671	-0.450286	209.9	0.44911	0.0330576	3667.43	0.226509	1	10	0.0101414	0.000407822	0	0.000236465	0.0402125	0.000316036	0.0402138	0.450286	226.509	28821	28821.9	-89.5497	0.0000000E+000	0.0000000E+000	0.0000000E+000	89.5497	0.0000000E+000	0.0000000E+000	0.0000000E+000	-89.5497	0.0000000E+000	0.0000000E+000	0.0000000E+000	-0.450286	0.0000000E+000	0.0000000E+000	0.0000000E+000	0.450286	127.24	89.5497	4.48426e-06
102.667	24.9661	0.346216	24.9685	-0.794496	211.091	0.449093	0.010023	4477.55	0.860897	1	11	0.0101449	0.000406308	0	0.000240362	0.0400467	0.000555346	0.0400505	0.794496	860.895	62080.4	62086.3	-89.2055	0.0000000E+000	0.0000000E+000	0.0000000E+000	89.2055	0.0000000E+000	0.0000000E+000	0.0000000E+000	-89.2055	0.0000000E+000	0.0000000E+000	0.0000000E+000	-0.794496	0.0000000E+000	0.0000000E+000	0.0000000E+000	0.794496	72.1112	89.2055	1.17499e-06
47.4443	25.0158	0.678743	25.025	-1.5542	212.002	0.449086	0.00880493	4942.32	3.63575	1	11	0.0101454	0.000405412	0	0.000242703	0.0399454	0.00108382	0.0399601	1.5542	3635.74	133999	134049	-88.4458	0.0000000E+000	0.0000000E+000	0.0000000E+000	88.4458	0.0000000E+000	0.0000000E+000	0.0000000E+000	-88.4458	0.0000000E+000	0.0000000E+000	0.0000000E+000	-1.5542	0.0000000E+000	0.0000000E+000	0.0000000E+000	1.5542	36.856	88.4458	1.04519e-06
21.9144	25.1086	1.40896	25.1481	-3.21177	212.87	0.449078	0.00946613	5154.54	16.18	1	11	0.0101471	0.000403494	0	0.000244403	0.0397019	0.00222786	0.0397644	3.21177	16180	288338	288791	-86.7882	0.0000000E+000	0.0000000E+000	0.0000000E+000	86.7882	0.0000000E+000	0.0000000E+000	0.0000000E+000	-86.7882	0.0000000E+000	0.0000000E+000	0.0000000E+000	-3.21177	0.0000000E+000	0.0000000E+000	0.0000000E+000	3.21177	17.8206	86.7882	9.53448e-07
10.1329	25.3307	2.80333	25.4854	-6.31516	213.797	0.449101	0.00809241	5602.87	67.7915	1	11	0.0101526	0.000398369	0	0.000249394	0.0390001	0.00431609	0.0392382	6.31516	67791.5	612561	616301	-83.6848	0.0000000E+000	0.0000000E+000	0.0000000E+000	83.6848	0.0000000E+000	0.0000000E+000	0.0000000E+000	-83.6848	0.0000000E+000	0.0000000E+000	0.0000000E+000	-6.31516	0.0000000E+000	0.0000000E+000	0.0000000E+000	6.31516	9.03596	83.6848	3.2605e-06
4.68375	25.6018	5.97152	26.289	-13.1293	214.647	0.449095	0.00634713	5690.38	293.604	1	11	0.0101495	0.000386074	0	0.000250486	0.0370444	0.00864044	0.0380387	13.1293	293604	1.25878e+06	1.29256e+06	-76.8707	0.0000000E+000	0.0000000E+000	0.0000000E+000	76.8707	0.0000000E+000	0.0000000E+000	0.0000000E+000	-76.8707	0.0000000E+000	0.0000000E+000	0.0000000E+000	-13.1293	0.0000000E+000	0.0000000E+000	0.0000000E+000	13.1293	4.28732	76.8707	4.25984e-06
2.16533	26.0091	12.3699	28.8008	-25.4357	216.36	0.449103	0.00945209	5941.97	1096.11	1	11	0.0101544	0.000352575	0	0.000253028	0.0313557	0.0149127	0.0347213	25.4357	1.09611e+06	2.30469e+06	2.55207e+06	-64.5643	0.0000000E+000	0.0000000E+000	0.0000000E+000	64.5643	0.0000000E+000	0.0000000E+000	0.0000000E+000	-64.5643	0.0000000E+000	0.0000000E+000	0.0000000E+000	-25.4357	0.0000000E+000	0.0000000E+000	0.0000000E+000	25.4357	2.10261	64.5643	-2.70697e-06
1.00006	26.803	25.453	36.9629	-43.5201	221.019	0.449107	0.0065028	6252.5	2964.83	1	12	0.0101585	0.000274828	0	0.000256953	0.0196178	0.0186297	0.0270541	43.5201	2.96483e+06	3.12208e+06	4.30553e+06	-46.4799	0.0000000E+000	0.0000000E+000	0.0000000E+000	46.4799	0.0000000E+000	0.0000000E+000	0.0000000E+000	-46.4799	0.0000000E+000	0.0000000E+000	0.0000000E+000	-43.5201	0.0000000E+000	0.0000000E+000	0.0000000E+000	43.5201	1.05304	46.4799	8.29772e-06