File: ACS_Catal_2026/Figures_Na_K/main_figures/data/EC/20251112_2-148_alpha_reproducibility/20251112_2-148_005_gamma_reproducibility_Na1_03_CVA_C01.mpt
EC-Lab ASCII FILE
Nb header lines : 66

Cyclic Voltammetry Advanced

Run on channel : 1 (SN 69187)
User :
CE vs. WE compliance from -10 V to 10 V
Electrode connection : standard
Potential control : Ewe
Ewe ctrl range : min = -1.00 V, max = 1.00 V
Safety Limits :
	Do not start on E overload
Acquisition started on : 11/12/2025 19:47:23.448
Loaded Setting File :  C:\Users\User\Documents\EC-Lab\Data\Yatsuzuka\20251030_2-147_gamma_reproducibility\20251030_2-147_001_gamma1_K_1.mps
Saved on :
	File : 20251112_2-148_005_gamma_reproducibility_Na1_03_CVA_C01.mpr
	Directory : C:\Users\User\Documents\EC-Lab\Data\Yatsuzuka\20251112_2-148_alpha_reproducibility\
	Host : 192.109.209.127
Device : SP-150e (SN .003883)
Address : 192.109.209.128
EC-Lab for windows v11.52 (software)
Internet server v11.52 (firmware)
Command interpretor v11.50 (firmware)
Electrode material :
Initial state :
Electrolyte :
Comments :
Electrode surface area : 0.001 cm2
Characteristic mass : 0.001 g
Equivalent Weight : 0.000 g/eq.
Density : 0.000 g/cm3
Volume (V) : 0.001 cm3
Cycle Definition : Charge/Discharge alternance
Ei (V)              0.450
vs.                 Ref
ti (h:m:s)          0:00:10.0000
dti (s)             0.0000
dE/dt               5.000
dE/dt unit          mV/s
E1 (V)              0.700
vs.                 Ref
t1 (h:m:s)          0:00:0.0000
dt1 (s)             0.1000
Step percent        50
N                   10
E range min (V)     -1.000
E range max (V)     1.000
I Range             10 mA
I Range min         Unset
I Range max         Unset
I Range init        Unset
Bandwidth           5
E2 (V)              0.450
vs.                 Ref
t2 (h:m:s)          0:00:0.0000
dt2 (s)             0.1000
nc cycles           14
nr                  1
Reverse Scan        0
Ef (V)              0.000
vs.                 Eoc
tf (h:m:s)          0:00:0.0000
dtf (s)             0.1000

mode	ox/red	error	control changes	Ns changes	counter inc.	time/s	control/V	Ewe/V	<I>/mA	cycle number	(Q-Qo)/C	I Range	Ns	step time/s	P/W
2	0	0	1	0	0	232.273	0.449961	0.449659	-0.00127047	1	0.0000000E+000	11	0	0.000000000000000E+000	-5.71277e-07
2	1	0	1	0	0	245.51	0.516144	0.515943	0.00177311	1	2.19416e-05	11	0	13.1817	9.14826e-07
2	0	0	1	0	0	258.791	0.582552	0.582307	0.00161304	1	4.48783e-05	11	0	26.4632	9.39286e-07
2	1	0	1	0	0	272.073	0.64896	0.648736	0.00836891	1	9.19113e-05	11	0	39.7448	5.42921e-06
2	1	0	1	0	0	285.137	0.685708	0.685494	0.0584616	1	0.000713609	11	0	52.809	4.0075e-05
2	1	0	1	0	0	298.419	0.619301	0.619018	0.00131901	1	0.000943879	11	0	66.0905	8.16491e-07
2	1	0	1	0	0	311.7	0.552893	0.552669	0.000148025	1	0.000951285	11	0	79.3721	8.18086e-08
2	0	0	1	0	0	324.982	0.486485	0.486218	9.66331e-05	1	0.000952667	11	0	0.000000000000000E+000	4.69848e-08
2	0	0	1	0	1	338.121	0.479245	0.478965	0.00105879	2	0.000960756	11	0	5.949	5.07122e-07
2	1	0	1	0	1	351.403	0.545653	0.545461	0.0013153	2	0.000979662	11	0	19.2306	7.17447e-07
2	1	0	1	0	1	364.684	0.612061	0.611884	0.0021102	2	0.00100189	11	0	32.5121	1.2912e-06
2	1	0	1	0	1	377.966	0.678469	0.678287	0.0363523	2	0.00114147	11	0	45.7937	2.46573e-05
2	1	0	1	0	1	391.02	0.65625	0.656015	0.0119999	2	0.00177962	11	0	58.8479	7.87213e-06
2	1	0	1	0	1	404.301	0.589841	0.589584	0.000460185	2	0.0018195	11	0	72.1295	2.71318e-07
2	1	0	1	0	1	417.583	0.523433	0.523199	-8.79841e-05	2	0.00182206	11	0	0.1998	-4.60332e-08
2	0	0	1	0	1	430.865	0.457026	0.456769	-0.000317411	2	0.00182224	11	0	0.0998	-1.44983e-07
2	0	0	1	0	0	444.004	0.508704	0.508456	0.00100201	3	0.00183854	11	0	11.7384	5.09479e-07
2	1	0	1	0	0	457.285	0.575112	0.574883	0.00111386	3	0.00185711	11	0	25.02	6.4034e-07
2	1	0	1	0	0	470.567	0.64152	0.641294	0.00476877	3	0.00188866	11	0	38.3016	3.05818e-06
2	1	0	1	0	0	483.621	0.693199	0.692966	0.0683998	3	0.0023535	11	0	51.3557	4.73987e-05
2	1	0	1	0	0	496.902	0.626791	0.626609	0.00222373	3	0.00263568	11	0	64.6373	1.39341e-06
2	0	0	1	0	0	510.184	0.560382	0.560192	0.00022198	3	0.00264399	11	0	77.9189	1.24351e-07
2	1	0	1	0	0	523.466	0.493975	0.493743	0.000244337	3	0.00264496	11	0	0.000000000000000E+000	1.2064e-07
2	1	0	1	0	1	536.605	0.471756	0.471521	0.00145391	4	0.00265054	11	0	4.2941	6.85549e-07
2	1	0	1	0	1	549.886	0.538164	0.537939	0.00116832	4	0.00266918	11	0	17.5757	6.28487e-07
2	1	0	1	0	1	563.168	0.604572	0.604349	0.00204935	4	0.00268999	11	0	30.8573	1.23852e-06
2	1	0	1	0	1	576.449	0.670979	0.670742	0.0224167	4	0.00277903	11	0	44.1388	1.50358e-05
2	1	0	1	0	1	589.503	0.66374	0.66353	0.0173692	4	0.00338395	11	0	57.1929	1.1525e-05
2	1	0	1	0	1	602.785	0.597332	0.597113	0.000817732	4	0.00344024	11	0	70.4745	4.88278e-07
2	0	0	1	0	1	616.067	0.530924	0.530718	0.000432968	4	0.00344324	11	0	83.7561	2.29784e-07
2	0	0	1	0	1	629.348	0.464516	0.464273	-0.00027471	4	0.00344332	11	0	0.2996	-1.27541e-07
2	0	0	1	0	0	642.487	0.501215	0.500929	0.000964001	5	0.0034569	11	0	10.1859	4.82896e-07
2	0	0	1	0	0	655.769	0.567623	0.56744	0.00114987	5	0.00347505	11	0	23.4675	6.52485e-07
2	1	0	1	0	0	669.05	0.634031	0.633813	0.00354175	5	0.00350143	11	0	36.7491	2.24481e-06
2	1	0	1	0	0	682.239	0.700014	0.699822	0.0816816	5	0.00383987	11	0	49.938	5.71625e-05
2	1	0	0	0	0	695.386	0.63428	0.634101	0.00257653	5	0.00419333	11	0	63.0848	1.63378e-06
2	0	0	0	0	0	708.668	0.567872	0.567665	0.000585147	5	0.00420409	11	0	76.3664	3.32167e-07
2	0	0	1	0	0	721.949	0.501465	0.50121	0.000351398	5	0.00420548	11	0	0.0998	1.76124e-07
2	0	0	1	0	1	735.088	0.464266	0.464026	0.00101883	6	0.00420901	11	0	2.7961	4.72762e-07
2	0	0	1	0	1	748.37	0.530674	0.530457	0.00112341	6	0.00422733	11	0	16.0777	5.95922e-07
2	1	0	1	0	1	761.651	0.597082	0.596873	0.00184712	6	0.0042473	11	0	29.3593	1.1025e-06
2	1	0	1	0	1	774.933	0.66349	0.663271	0.0135784	6	0.0043069	11	0	42.6409	9.00617e-06
2	1	0	0	0	1	787.987	0.671229	0.671007	0.0233016	6	0.0048612	11	0	55.695	1.56355e-05
2	0	0	0	0	1	801.269	0.604821	0.604615	0.000494438	6	0.00493971	11	0	68.9766	2.98945e-07
2	1	0	0	0	1	814.55	0.538413	0.538187	0.000322814	6	0.00494385	11	0	82.2582	1.73735e-07
2	0	0	0	0	1	827.832	0.472005	0.4718	0.000269214	6	0.00494475	11	0	0.000000000000000E+000	1.27015e-07
2	1	0	0	0	0	840.971	0.493725	0.49352	0.00144305	7	0.00495676	11	0	8.688	7.12172e-07
2	1	0	0	0	0	854.253	0.560133	0.559895	0.0012673	7	0.00497574	11	0	21.9696	7.09553e-07
2	1	0	1	0	0	867.534	0.626541	0.626343	0.00255827	7	0.00499967	11	0	35.2511	1.60235e-06
2	1	0	1	0	0	880.816	0.692949	0.692743	0.0562816	7	0.00522731	11	0	48.5327	3.89887e-05
2	1	0	1	0	0	893.87	0.641769	0.641587	0.0037114	7	0.00564364	11	0	61.5869	2.38119e-06
2	1	0	1	0	0	907.151	0.575361	0.575104	0.000319278	7	0.00565846	11	0	74.8685	1.83618e-07
2	1	0	0	0	0	920.433	0.508954	0.508708	0.000347771	7	0.00566045	11	0	0.0998	1.76914e-07
2	1	0	0	0	1	933.572	0.456776	0.456522	0.00136912	8	0.00566201	11	0	1.2982	6.25035e-07
2	0	0	0	0	1	946.854	0.523184	0.522968	0.00109199	8	0.00568084	11	0	14.5798	5.71078e-07
2	1	0	0	0	1	960.135	0.589592	0.589349	0.00148082	8	0.00570079	11	0	27.8614	8.72718e-07
2	1	0	0	0	1	973.417	0.656	0.655797	0.00881912	8	0.00574489	11	0	41.143	5.78355e-06
2	1	0	1	0	1	986.471	0.678719	0.678471	0.031503	8	0.00624272	11	0	54.1971	2.13739e-05
2	1	0	1	0	1	999.752	0.612311	0.612142	0.000959843	8	0.00635511	11	0	67.4787	5.8756e-07
2	0	0	1	0	1	1013.03	0.545902	0.545654	0.000262006	8	0.00636054	11	0	80.7603	1.42964e-07
2	1	0	1	0	1	1026.32	0.479494	0.479272	0.000356716	8	0.00636263	11	0	94.0419	1.70964e-07
2	1	0	1	0	0	1039.45	0.486236	0.485977	0.0016128	9	0.00637311	11	0	7.1901	7.83781e-07
2	1	0	1	0	0	1052.74	0.552644	0.552426	0.00151025	9	0.00639217	11	0	20.4717	8.34299e-07
2	1	0	0	0	0	1066.02	0.619051	0.61883	0.00217197	9	0.00641452	11	0	33.7532	1.34408e-06
2	1	0	0	0	0	1079.3	0.685459	0.685258	0.0382611	9	0.00656619	11	0	47.0348	2.62187e-05
2	1	0	1	0	0	1092.35	0.64926	0.649076	0.00623595	9	0.00702486	11	0	60.0889	4.04761e-06
2	1	0	1	0	0	1105.64	0.582852	0.582611	0.000287639	9	0.00704585	11	0	73.3705	1.67582e-07
2	1	0	1	0	0	1118.92	0.516444	0.516271	0.000428958	9	0.00704852	11	0	86.6521	2.21458e-07
2	1	0	1	0	0	1132.17	0.450161	0.449962	-0.000274662	9	0.00704908	11	0	0.0749	-1.23588e-07
2	1	0	1	0	1	1145.34	0.515695	0.515444	0.00151272	10	0.00706766	11	0	13.0819	7.79724e-07
2	1	0	1	0	1	1158.62	0.582103	0.58187	0.0011882	10	0.0070869	11	0	26.3635	6.91378e-07
2	1	0	1	0	1	1171.9	0.648511	0.64834	0.00593976	10	0.0071208	11	0	39.6451	3.85098e-06
2	1	0	1	0	1	1184.95	0.686208	0.685974	0.042063	10	0.00755473	11	0	52.6992	2.88541e-05
2	1	0	1	0	1	1198.24	0.6198	0.619561	0.0013558	10	0.00771309	11	0	65.9808	8.39999e-07
2	1	0	1	0	1	1211.52	0.553393	0.553179	0.000467829	10	0.00771913	11	0	79.2623	2.58793e-07
2	1	0	1	0	1	1224.8	0.486985	0.486791	0.000110124	10	0.00772054	11	0	1.2982	5.36072e-08
2	0	0	1	0	0	1237.94	0.478746	0.478468	0.00125883	11	0.00772805	11	0	5.6921	6.02309e-07
2	1	0	1	0	0	1251.22	0.545154	0.54492	0.00149241	11	0.00774629	11	0	18.9737	8.13242e-07
2	1	0	1	0	0	1264.5	0.611562	0.61135	0.00205585	11	0.00776681	11	0	32.2553	1.25684e-06
2	1	0	1	0	0	1277.78	0.67797	0.677749	0.025721	11	0.00786806	11	0	45.5369	1.74324e-05
2	1	0	1	0	0	1290.84	0.656749	0.656525	0.00869793	11	0.00834258	11	0	58.591	5.71041e-06
2	0	0	1	0	0	1304.12	0.590341	0.590119	0.000484057	11	0.00837264	11	0	71.8726	2.85651e-07
2	1	0	1	0	0	1317.4	0.523933	0.523707	0.000443121	11	0.00837535	11	0	85.1542	2.32065e-07
2	1	0	1	0	0	1330.68	0.457525	0.457292	-7.68316e-05	11	0.00837532	11	0	0.8988	-3.51345e-08
2	1	0	1	0	1	1343.82	0.508205	0.507983	0.00101689	12	0.00839107	11	0	11.584	5.16565e-07
2	1	0	1	0	1	1357.1	0.574613	0.574404	0.00135809	12	0.00840927	11	0	24.8655	7.80092e-07
2	0	0	1	0	1	1370.38	0.641021	0.640785	0.00396553	12	0.00843653	11	0	38.1471	2.54105e-06
2	1	0	1	0	1	1383.44	0.693698	0.693477	0.0541554	12	0.00879009	11	0	51.2013	3.75555e-05
2	1	0	1	0	1	1396.72	0.627289	0.627063	0.00139769	12	0.00900972	11	0	64.4829	8.7644e-07
2	0	0	1	0	1	1410	0.560882	0.560677	2.60689e-05	12	0.00901651	11	0	77.7644	1.46162e-08
2	1	0	1	0	1	1423.28	0.494474	0.49423	0.000393864	12	0.00901779	11	0	0.0999	1.9466e-07
2	1	0	1	0	0	1436.42	0.471256	0.47109	0.00152867	13	0.00902371	11	0	4.1942	7.20142e-07
2	1	0	1	0	0	1449.7	0.537664	0.537407	0.00129226	13	0.00904204	11	0	17.4758	6.94468e-07
2	1	0	1	0	0	1462.99	0.604072	0.603882	0.00175544	13	0.00906155	11	0	30.7574	1.06008e-06
2	1	0	1	0	0	1476.27	0.67048	0.670186	0.0167375	13	0.00913125	11	0	44.0389	1.12172e-05
2	1	0	1	0	0	1489.32	0.664239	0.664019	0.013132	13	0.0096072	11	0	57.0931	8.71993e-06
2	1	0	1	0	0	1502.6	0.59783	0.59763	0.000435621	13	0.00965137	11	0	70.3747	2.6034e-07
2	1	0	1	0	0	1515.88	0.531423	0.53124	0.000418117	13	0.00965439	11	0	83.6563	2.2212e-07
2	1	0	1	0	0	1529.17	0.465014	0.464766	0.000306979	13	0.00965513	11	0	0.000000000000000E+000	1.42673e-07
2	0	0	1	0	1	1542.3	0.500715	0.500432	0.00125501	14	0.00966909	11	0	10.1406	6.28047e-07
2	1	0	1	0	1	1555.59	0.567123	0.566902	0.00149224	14	0.00968753	11	0	23.4222	8.45955e-07
2	1	0	1	0	1	1568.87	0.633531	0.633332	0.00287781	14	0.00971192	11	0	36.7038	1.82261e-06
2	1	0	1	0	1	1582.13	0.699839	0.699562	0.0664811	14	0.00998608	11	0	49.9654	4.65076e-05
2	1	0	1	0	1	1595.2	0.63478	0.634542	0.00227975	14	0.0102749	11	0	63.0395	1.4466e-06
2	0	0	1	0	1	1608.49	0.568372	0.568125	4.18365e-05	14	0.0102843	11	0	76.3211	2.37683e-08
2	0	0	1	0	1	1621.77	0.501964	0.501696	-0.000121115	14	0.0102863	11	0	89.6027	-6.07631e-08
2	0	0	1	0	0	1634.91	0.463767	0.463523	0.00111082	15	0.0102899	11	0	2.7784	5.14892e-07
2	1	0	1	0	0	1648.19	0.530175	0.529904	0.0013912	15	0.0103083	11	0	16.06	7.37204e-07
2	1	0	1	0	0	1661.47	0.596583	0.596371	0.00143869	15	0.0103274	11	0	29.3416	8.57993e-07
2	1	0	1	0	0	1674.75	0.662991	0.662788	0.0111717	15	0.0103779	11	0	42.6232	7.40446e-06
2	1	0	0	0	0	1687.8	0.671728	0.671487	0.0196428	15	0.010841	11	0	55.6773	1.31899e-05
2	1	0	1	0	0	1701.09	0.605321	0.605158	0.000684535	15	0.0109077	11	0	68.9588	4.14252e-07
2	0	0	1	0	0	1714.37	0.538913	0.538679	0.000294017	15	0.0109113	11	0	82.2404	1.58381e-07
2	1	0	1	0	0	1727.65	0.472505	0.47226	-4.91966e-05	15	0.0109118	11	0	0.000000000000000E+000	-2.32336e-08
2	1	0	0	0	0	1732.15	0.450011	0.449792	0.00181105	15	0.0109116	11	0	1.1006	8.14594e-07