File: ACS_Catal_2026/Figures_Na_K/main_figures/data/EC/20251112_2-148_alpha_reproducibility/20251112_2-148_001_alpha_reproducibility_1_K2_02_PEIS_C01.mpt
EC-Lab ASCII FILE
Nb header lines : 63

Potentio Electrochemical Impedance Spectroscopy

Run on channel : 1 (SN 69187)
User :
CE vs. WE compliance from -10 V to 10 V
Electrode connection : standard
Potential control : Ewe
Ewe ctrl range : min = -1.00 V, max = 1.00 V
Safety Limits :
	Do not start on E overload
Acquisition started on : 11/12/2025 14:40:36.984
Loaded Setting File :  C:\Users\User\Documents\EC-Lab\Data\Yatsuzuka\20251030_2-147_gamma_reproducibility\20251030_2-147_001_gamma1_K_1.mps
Saved on :
	File : 20251112_2-148_001_alpha_reproducibility_1_K2_02_PEIS_C01.mpr
	Directory : C:\Users\User\Documents\EC-Lab\Data\Yatsuzuka\20251112_2-148_alpha_reproducibility\
	Host : 192.109.209.127
Device : SP-150e (SN .003883)
Address : 192.109.209.128
EC-LAB for windows v11.52 (software)
Internet server v11.52 (firmware)
Command interpretor v11.50 (firmware)
Electrode material :
Initial state :
Electrolyte :
Comments :
Electrode surface area : 0.001 cm2
Characteristic mass : 0.001 g
Equivalent Weight : 0.000 g/eq.
Density : 0.000 g/cm3
Volume (V) : 0.001 cm3
Cycle Definition : Charge/Discharge alternance
Mode                Single sine
E (V)               0.4500
vs.                 Ref
tE (h:m:s)          0:00:0.0000
record              0
dI                  0.000
unit dI             mA
dt (s)              0.000
fi                  500.000
unit fi             kHz
ff                  1.000
unit ff             Hz
Nd                  6
Points              per decade
spacing             Logarithmic
Va (mV)             10.0
pw                  0.10
Na                  2
corr                0
E range min (V)     -1.000
E range max (V)     1.000
I Range             Auto
Bandwidth           5
nc cycles           0
goto Ns'            0
nr cycles           0
inc. cycle          0

freq/Hz	Re(Z)/Ohm	-Im(Z)/Ohm	|Z|/Ohm	Phase(Z)/deg	time/s	<Ewe>/V	<I>/mA	Cs/uF	Cp/uF	cycle number	I Range	|Ewe|/V	|I|/A	Ns	(Q-Qo)/mA.h	Re(Y)/Ohm-1	Im(Y)/Ohm-1	|Y|/Ohm-1	Phase(Y)/deg	Re(C)/nF	Im(C)/nF	|C|/nF	Phase(C)/deg	Re(M)	Im(M)	|M|	Phase(M)/deg	Re(Permittivity)	Im(Permittivity)	|Permittivity|	Phase(Permittivity)/deg	Re(Resistivity)/Ohm.cm	Im(Resistivity)/Ohm.cm	|Resistivity|/Ohm.cm	Phase(Resistivity)/deg	Re(Conductivity)/mS/cm	Im(Conductivity)/mS/cm	|Conductivity|/mS/cm	Phase(Conductivity)/deg	Tan(Delta)	Loss Angle(Delta)/deg	dq/mA.h	Pwe/W	Rwe/Ohm
500019	13.5137	-2.63891	13.769	11.0494	202.082	0.450155	0.00917321	-0.120617	-0.00443051	1	10	0.00468369	0.000340162	0	2.06042e-05	0.0712806	-0.0139194	0.072627	-11.0494	-4.43052	22.6885	23.117	-101.049	0.0000000E+000	0.0000000E+000	0.0000000E+000	101.049	0.0000000E+000	0.0000000E+000	0.0000000E+000	-101.049	0.0000000E+000	0.0000000E+000	0.0000000E+000	11.0494	0.0000000E+000	0.0000000E+000	0.0000000E+000	-11.0494	5.12096	78.9506	2.06042e-05	4.12936e-06	49072.8
231063	7.68858	-0.78245	7.72829	5.81086	202.926	0.449847	0.0131573	-0.880307	-0.00902361	1	10	0.0101828	0.00131761	0	2.6699e-05	0.12873	-0.0131006	0.129395	-5.81086	-9.02361	88.6686	89.1266	-95.8109	0.0000000E+000	0.0000000E+000	0.0000000E+000	95.8109	0.0000000E+000	0.0000000E+000	0.0000000E+000	-95.8109	0.0000000E+000	0.0000000E+000	0.0000000E+000	5.81086	0.0000000E+000	0.0000000E+000	0.0000000E+000	-5.81086	9.82629	84.1891	3.66781e-06	5.91876e-06	34190
106786	7.04518	-0.112066	7.04607	0.911316	203.771	0.449771	0.0107777	-13.2993	-0.00336423	1	10	0.0109849	0.00155901	0	3.4365e-05	0.141905	-0.00225726	0.141923	-0.911316	-3.36423	211.496	211.523	-90.9113	0.0000000E+000	0.0000000E+000	0.0000000E+000	90.9113	0.0000000E+000	0.0000000E+000	0.0000000E+000	-90.9113	0.0000000E+000	0.0000000E+000	0.0000000E+000	0.911316	0.0000000E+000	0.0000000E+000	0.0000000E+000	-0.911316	62.8662	89.0887	3.26817e-06	4.84748e-06	41731.8
49352.4	7.02609	0.0187209	7.02612	-0.152663	204.615	0.449755	0.012261	172.26	0.00122295	1	10	0.0106174	0.00151113	0	3.56599e-05	0.142326	0.000379224	0.142326	0.152663	1.22296	458.982	458.983	-89.8473	0.0000000E+000	0.0000000E+000	0.0000000E+000	89.8473	0.0000000E+000	0.0000000E+000	0.0000000E+000	-89.8473	0.0000000E+000	0.0000000E+000	0.0000000E+000	-0.152663	0.0000000E+000	0.0000000E+000	0.0000000E+000	0.152663	375.307	89.8473	7.00937e-07	5.51443e-06	36681.9
22806.6	7.05336	0.0477857	7.05352	-0.388166	205.459	0.449762	0.0120299	146.037	0.00670264	1	10	0.0104869	0.00148676	0	3.89767e-05	0.14177	0.000960473	0.141773	0.388166	6.70268	989.337	989.36	-89.6118	0.0000000E+000	0.0000000E+000	0.0000000E+000	89.6118	0.0000000E+000	0.0000000E+000	0.0000000E+000	-89.6118	0.0000000E+000	0.0000000E+000	0.0000000E+000	-0.388166	0.0000000E+000	0.0000000E+000	0.0000000E+000	0.388166	147.604	89.6118	-6.11827e-07	5.41059e-06	37387
10540.4	7.07933	0.0590886	7.07958	-0.478216	206.303	0.449755	0.00983662	255.541	0.0178013	1	10	0.0102912	0.00145364	0	3.99958e-05	0.141246	0.00117893	0.141251	0.478216	17.8014	2132.76	2132.83	-89.5218	0.0000000E+000	0.0000000E+000	0.0000000E+000	89.5218	0.0000000E+000	0.0000000E+000	0.0000000E+000	-89.5218	0.0000000E+000	0.0000000E+000	0.0000000E+000	-0.478216	0.0000000E+000	0.0000000E+000	0.0000000E+000	0.478216	119.809	89.5218	1.21974e-06	4.42408e-06	45722.6
4871.56	7.09806	0.0590454	7.09831	-0.476605	207.517	0.449764	0.0123616	553.307	0.038285	1	10	0.010097	0.00142246	0	4.125e-05	0.140874	0.00117186	0.140879	0.476605	38.2852	4602.38	4602.54	-89.5234	0.0000000E+000	0.0000000E+000	0.0000000E+000	89.5234	0.0000000E+000	0.0000000E+000	0.0000000E+000	-89.5234	0.0000000E+000	0.0000000E+000	0.0000000E+000	-0.476605	0.0000000E+000	0.0000000E+000	0.0000000E+000	0.476605	120.214	89.5234	1.00873e-06	5.55979e-06	36384
2250.72	7.12163	0.074226	7.12202	-0.59715	208.447	0.449758	0.0105913	952.671	0.103478	1	10	0.0108546	0.0015241	0	4.43581e-05	0.140402	0.00146336	0.14041	0.59715	103.479	9928.23	9928.77	-89.4028	0.0000000E+000	0.0000000E+000	0.0000000E+000	89.4028	0.0000000E+000	0.0000000E+000	0.0000000E+000	-89.4028	0.0000000E+000	0.0000000E+000	0.0000000E+000	-0.59715	0.0000000E+000	0.0000000E+000	0.0000000E+000	0.59715	95.9453	89.4028	2.7793e-06	4.76353e-06	42464.8
1040.33	7.13178	0.115537	7.13271	-0.928128	209.599	0.449757	0.0109901	1324.12	0.347424	1	10	0.0100622	0.00141071	0	4.71454e-05	0.140181	0.00227097	0.140199	0.928128	347.425	21445.5	21448.3	-89.0719	0.0000000E+000	0.0000000E+000	0.0000000E+000	89.0719	0.0000000E+000	0.0000000E+000	0.0000000E+000	-89.0719	0.0000000E+000	0.0000000E+000	0.0000000E+000	-0.928128	0.0000000E+000	0.0000000E+000	0.0000000E+000	0.928128	61.7272	89.0719	2.05784e-07	4.94288e-06	40923.9
480.769	7.1405	0.218869	7.14385	-1.75567	210.529	0.449761	0.00990557	1512.51	1.41972	1	10	0.0100927	0.00141278	0	5.10169e-05	0.139915	0.00428863	0.13998	1.75567	1419.72	46317.7	46339.5	-88.2443	0.0000000E+000	0.0000000E+000	0.0000000E+000	88.2443	0.0000000E+000	0.0000000E+000	0.0000000E+000	-88.2443	0.0000000E+000	0.0000000E+000	0.0000000E+000	-1.75567	0.0000000E+000	0.0000000E+000	0.0000000E+000	1.75567	32.6246	88.2443	1.93411e-06	4.45514e-06	45404.8
222.061	7.17344	0.440868	7.18698	-3.51688	211.453	0.44976	0.0103025	1625.7	6.11737	1	10	0.0101223	0.00140843	0	5.38869e-05	0.138879	0.00853525	0.139141	3.51688	6117.37	99536.7	99724.5	-86.4831	0.0000000E+000	0.0000000E+000	0.0000000E+000	86.4831	0.0000000E+000	0.0000000E+000	0.0000000E+000	-86.4831	0.0000000E+000	0.0000000E+000	0.0000000E+000	-3.51688	0.0000000E+000	0.0000000E+000	0.0000000E+000	3.51688	16.2712	86.4831	1.52729e-06	4.63365e-06	43655.5
102.667	7.21204	0.906658	7.26881	-7.16532	212.39	0.449757	0.00968009	1709.8	26.6014	1	10	0.0101228	0.00139264	0	5.4957e-05	0.1365	0.01716	0.137574	7.16532	26601.4	211602	213267	-82.8347	0.0000000E+000	0.0000000E+000	0.0000000E+000	82.8347	0.0000000E+000	0.0000000E+000	0.0000000E+000	-82.8347	0.0000000E+000	0.0000000E+000	0.0000000E+000	-7.16532	0.0000000E+000	0.0000000E+000	0.0000000E+000	7.16532	7.95453	82.8347	1.23398e-07	4.35369e-06	46462.1
47.4443	7.30436	1.85954	7.53734	-14.2829	213.301	0.449757	0.0101665	1803.97	109.801	1	10	0.0101334	0.00134443	0	5.5336e-05	0.128572	0.0327317	0.132673	14.2829	109801	431302	445059	-75.7171	0.0000000E+000	0.0000000E+000	0.0000000E+000	75.7171	0.0000000E+000	0.0000000E+000	0.0000000E+000	-75.7171	0.0000000E+000	0.0000000E+000	0.0000000E+000	-14.2829	0.0000000E+000	0.0000000E+000	0.0000000E+000	14.2829	3.92804	75.7171	-1.93991e-07	4.57243e-06	44239.3
21.9144	7.45595	3.8383	8.38593	-27.2393	214.169	0.449737	0.00889558	1892.13	396.394	1	10	0.0101588	0.00121142	0	5.49359e-05	0.106023	0.0545804	0.119247	27.2393	396394	770000	866042	-62.7607	0.0000000E+000	0.0000000E+000	0.0000000E+000	62.7607	0.0000000E+000	0.0000000E+000	0.0000000E+000	-62.7607	0.0000000E+000	0.0000000E+000	0.0000000E+000	-27.2393	0.0000000E+000	0.0000000E+000	0.0000000E+000	27.2393	1.94251	62.7607	-2.27542e-06	4.00067e-06	50557.4
10.1329	7.73494	7.91759	11.0688	-45.6686	215.096	0.449755	0.00956083	1983.77	1015.03	1	10	0.0101695	0.000918755	0	5.78179e-05	0.0631334	0.0646242	0.0903444	45.6686	1.01503e+06	991616	1.41901e+06	-44.3314	0.0000000E+000	0.0000000E+000	0.0000000E+000	44.3314	0.0000000E+000	0.0000000E+000	0.0000000E+000	-44.3314	0.0000000E+000	0.0000000E+000	0.0000000E+000	-45.6686	0.0000000E+000	0.0000000E+000	0.0000000E+000	45.6686	0.976931	44.3315	2.73126e-06	4.30003e-06	47041.5
4.68375	8.16395	16.7776	18.6585	-64.0526	216.146	0.449761	0.00185283	2025.33	1637.59	1	11	0.010184	0.000545809	0	5.08158e-05	0.0234503	0.0481923	0.0535949	64.0526	1.63759e+06	796845	1.82117e+06	-25.9474	0.0000000E+000	0.0000000E+000	0.0000000E+000	25.9474	0.0000000E+000	0.0000000E+000	0.0000000E+000	-25.9474	0.0000000E+000	0.0000000E+000	0.0000000E+000	-64.0526	0.0000000E+000	0.0000000E+000	0.0000000E+000	64.0526	0.486597	25.9474	-6.35737e-06	8.33331e-07	242743
2.16533	9.0451	35.5043	36.6383	-75.7073	217.859	0.449768	0.000966642	2070.22	1944.04	1	11	0.0101755	0.000277728	0	6.08816e-05	0.00673817	0.026449	0.0272938	75.7073	1.94404e+06	495266	2.00614e+06	-14.2927	0.0000000E+000	0.0000000E+000	0.0000000E+000	14.2927	0.0000000E+000	0.0000000E+000	0.0000000E+000	-14.2927	0.0000000E+000	0.0000000E+000	0.0000000E+000	-75.7073	0.0000000E+000	0.0000000E+000	0.0000000E+000	75.7073	0.254761	14.2927	3.97487e-06	4.34765e-07	465289
1.00006	10.9264	75.1134	75.9039	-81.7235	222.199	0.449772	0.000397654	2118.73	2074.82	1	12	0.0101781	0.000134091	0	5.31711e-05	0.00189647	0.0130373	0.0131745	81.7235	2.07482e+06	301814	2.09666e+06	-8.27647	0.0000000E+000	0.0000000E+000	0.0000000E+000	8.27647	0.0000000E+000	0.0000000E+000	0.0000000E+000	-8.27647	0.0000000E+000	0.0000000E+000	0.0000000E+000	-81.7235	0.0000000E+000	0.0000000E+000	0.0000000E+000	81.7235	0.145465	8.27647	-4.16117e-06	1.78854e-07	1.13106e+06