File: ACS_Catal_2026/Figures_Na_K/main_figures/data/EC/20251112_2-148_alpha_reproducibility/20251112_2-148_001_alpha_reproducibility_1_Na1_01_CVA_C01.mpt
EC-Lab ASCII FILE
Nb header lines : 66

Cyclic Voltammetry Advanced

Run on channel : 1 (SN 69187)
User :
CE vs. WE compliance from -10 V to 10 V
Electrode connection : standard
Potential control : Ewe
Ewe ctrl range : min = -1.00 V, max = 1.00 V
Safety Limits :
	Do not start on E overload
Acquisition started on : 11/12/2025 13:54:05.582
Loaded Setting File :  C:\Users\User\Documents\EC-Lab\Data\Yatsuzuka\20251030_2-147_gamma_reproducibility\20251030_2-147_001_gamma1_K_1.mps
Saved on :
	File : 20251112_2-148_001_alpha_reproducibility_1_Na1_01_CVA_C01.mpr
	Directory : C:\Users\User\Documents\EC-Lab\Data\Yatsuzuka\20251112_2-148_alpha_reproducibility\
	Host : 192.109.209.127
Device : SP-150e (SN .003883)
Address : 192.109.209.128
EC-LAB for windows v11.52 (software)
Internet server v11.52 (firmware)
Command interpretor v11.50 (firmware)
Electrode material :
Initial state :
Electrolyte :
Comments :
Electrode surface area : 0.001 cm2
Characteristic mass : 0.001 g
Equivalent Weight : 0.000 g/eq.
Density : 0.000 g/cm3
Volume (V) : 0.001 cm3
Cycle Definition : Charge/Discharge alternance
Ei (V)              0.350
vs.                 Ref
ti (h:m:s)          0:00:10.0000
dti (s)             0.0000
dE/dt               10.000
dE/dt unit          mV/s
E1 (V)              0.450
vs.                 Ref
t1 (h:m:s)          0:00:0.0000
dt1 (s)             0.1000
Step percent        50
N                   10
E range min (V)     -1.000
E range max (V)     1.000
I Range             Auto
I Range min         Unset
I Range max         Unset
I Range init        Unset
Bandwidth           5
E2 (V)              0.350
vs.                 Ref
t2 (h:m:s)          0:00:0.0000
dt2 (s)             0.1000
nc cycles           9
nr                  1
Reverse Scan        0
Ef (V)              0.000
vs.                 Eoc
tf (h:m:s)          0:00:0.0000
dtf (s)             0.1000

mode	ox/red	error	control changes	Ns changes	counter inc.	time/s	control/V	Ewe/V	<I>/mA	cycle number	(Q-Qo)/C	I Range	Ns	step time/s	Pwe/W	Rwe/Ohm
2	0	0	1	0	0	0.000000000000000E+000	0.34995	0.34959	-0.00239882	1	0.0000000E+000	14	0	0.000000000000000E+000	-8.38603e-07	145734
2	1	0	1	0	0	1.9047	0.368998	0.368793	0.0381083	1	6.11772e-05	13	0	1.8624	1.40541e-05	9677.48
2	1	0	1	0	0	3.8021	0.387972	0.387746	0.0336106	1	0.000121521	13	0	3.7598	1.30323e-05	11536.4
2	1	0	1	0	0	5.6995	0.406945	0.406727	0.0253042	1	0.000178883	13	0	5.6572	1.02919e-05	16073.5
2	1	0	1	0	0	7.5969	0.425919	0.425672	0.0223491	1	0.000233349	13	0	7.5546	9.51341e-06	19046.5
2	1	0	1	0	0	9.4943	0.444893	0.444676	0.0202621	1	0.00028544	13	0	9.452	9.01008e-06	21946.2
2	0	0	1	0	0	11.3883	0.436155	0.435863	-0.0307691	1	0.000268623	13	0	1.3581	-1.34111e-05	14165.6
2	0	0	1	0	0	13.2857	0.417181	0.416939	-0.0329196	1	0.000219967	13	0	3.2555	-1.37255e-05	12665.4
2	0	0	1	0	0	15.1831	0.398208	0.397904	-0.0336928	1	0.000166812	13	0	5.1529	-1.34065e-05	11809.8
2	0	0	1	0	0	17.0805	0.379234	0.378936	-0.0344641	1	0.000109055	13	0	7.0503	-1.30597e-05	10995.1
2	0	0	1	0	0	18.9778	0.360261	0.359942	-0.0339331	1	4.57684e-05	13	0	8.9476	-1.2214e-05	10607.4
2	1	0	1	0	1	20.8429	0.358413	0.358192	0.0289305	2	3.31733e-05	13	0	0.794	1.03627e-05	12381.1
2	1	0	1	0	1	22.7402	0.377386	0.377201	0.0281756	2	9.34187e-05	13	0	2.6913	1.06279e-05	13387.5
2	1	0	1	0	1	24.6376	0.396361	0.396123	0.0260686	2	0.000151436	13	0	4.5887	1.03264e-05	15195.4
2	1	0	1	0	1	26.5349	0.415334	0.415116	0.0298726	2	0.000206761	13	0	6.486	1.24006e-05	13896.2
2	1	0	1	0	1	28.4323	0.434308	0.434107	0.0337616	2	0.000259689	13	0	8.3834	1.46562e-05	12858
2	0	0	1	0	1	30.3364	0.44664	0.446414	-0.0156361	2	0.000296101	13	0	0.2297	-6.98017e-06	28550.2
2	0	0	1	0	1	32.2337	0.427667	0.42742	-0.0209521	2	0.000250477	13	0	2.127	-8.95536e-06	20399.8
2	0	0	1	0	1	34.1311	0.408693	0.408437	-0.0228436	2	0.000199797	13	0	4.0244	-9.33017e-06	17879.7
2	0	0	1	0	1	36.0285	0.389719	0.389433	-0.024023	2	0.000144636	13	0	5.9218	-9.35533e-06	16210.9
2	0	0	1	0	1	37.9259	0.370746	0.370502	-0.0264983	2	8.4554e-05	13	0	7.8192	-9.81767e-06	13982.1
2	0	0	1	0	1	39.8233	0.351772	0.351491	-0.0338849	2	1.85293e-05	13	0	9.7166	-1.19103e-05	10373.1
2	1	0	1	0	0	41.6883	0.366901	0.366629	0.0367497	3	6.17486e-05	13	0	1.6428	1.34735e-05	9976.38
2	1	0	1	0	0	43.5856	0.385874	0.385609	0.0366386	3	0.00012097	13	0	3.5401	1.41282e-05	10524.7
2	1	0	1	0	0	45.483	0.404849	0.404595	0.0274908	3	0.000177606	13	0	5.4375	1.11226e-05	14717.5
2	1	0	1	0	0	47.3803	0.423822	0.42358	0.0217204	3	0.000231897	13	0	7.3348	9.20034e-06	19501.4
2	1	0	1	0	0	49.2777	0.442796	0.442562	0.0289734	3	0.00028382	13	0	9.2322	1.28225e-05	15274.8
2	0	0	1	0	0	51.1818	0.438153	0.437924	-0.0192605	3	0.000276745	13	0	1.1434	-8.43464e-06	22736.9
2	0	0	1	0	0	53.0792	0.419178	0.418941	-0.0281227	3	0.000228544	13	0	3.0408	-1.17818e-05	14896.9
2	0	0	1	0	0	54.9765	0.400205	0.399958	-0.0348503	3	0.000176088	13	0	4.9381	-1.39387e-05	11476.5
2	0	0	1	0	0	56.8739	0.381231	0.381004	-0.0261099	3	0.000118996	13	0	6.8355	-9.94799e-06	14592.3
2	0	0	1	0	0	58.7713	0.362257	0.362028	-0.0368098	3	5.64708e-05	13	0	8.7329	-1.33262e-05	9835.1
2	1	0	1	0	1	60.6363	0.356416	0.356195	0.0318062	4	3.13007e-05	13	0	0.5292	1.13292e-05	11198.9
2	1	0	1	0	1	62.5337	0.375389	0.375117	0.0255904	4	9.16216e-05	13	0	2.4266	9.5994e-06	14658.5
2	1	0	1	0	1	64.4311	0.394363	0.394102	0.0348412	4	0.000149691	13	0	4.324	1.3731e-05	11311.4
2	1	0	1	0	1	66.3284	0.413336	0.413134	0.0341581	4	0.000204997	13	0	6.2213	1.41119e-05	12094.7
2	1	0	1	0	1	68.2258	0.432311	0.432083	0.0243542	4	0.00025797	13	0	8.1187	1.0523e-05	17741.6
2	0	0	1	0	1	70.0999	0.448937	0.448702	-0.0219936	4	0.000305174	12	0	0.000000000000000E+000	-9.86855e-06	20401.5
2	0	0	1	0	1	72.0273	0.429664	0.429466	-0.0198731	4	0.000260126	13	0	1.9274	-8.5348e-06	21610.4
2	0	0	1	0	1	73.9246	0.41069	0.410422	-0.0344943	4	0.000210067	13	0	3.8247	-1.41572e-05	11898.3
2	0	0	1	0	1	75.822	0.391716	0.391441	-0.0254772	4	0.000155606	13	0	5.7221	-9.97281e-06	15364.4
2	0	0	1	0	1	77.7193	0.372743	0.372538	-0.0330009	4	9.62305e-05	13	0	7.6194	-1.22941e-05	11288.7
2	0	0	1	0	1	79.6167	0.353769	0.353496	-0.0389947	4	3.14647e-05	13	0	9.5168	-1.37844e-05	9065.23
2	1	0	1	0	0	81.4817	0.364904	0.364618	0.0256028	5	6.14578e-05	13	0	1.458	9.33524e-06	14241.3
2	1	0	1	0	0	83.3791	0.383877	0.3836	0.0371745	5	0.000120801	13	0	3.3554	1.42602e-05	10318.9
2	1	0	1	0	0	85.2765	0.402851	0.402605	0.0229651	5	0.000177611	13	0	5.2528	9.24588e-06	17531.1
2	1	0	1	0	0	87.1739	0.421825	0.42158	0.0331982	5	0.000231915	13	0	7.1502	1.39957e-05	12698.9
2	1	0	1	0	0	89.0712	0.440798	0.440635	0.0230223	5	0.000283797	13	0	9.0475	1.01444e-05	19139.5
2	0	0	1	0	0	90.9753	0.440149	0.43989	-0.0183548	5	0.000288508	13	0	0.8788	-8.07411e-06	23965.9
2	0	0	1	0	0	92.8727	0.421176	0.4209	-0.0308399	5	0.000240823	13	0	2.7762	-1.29805e-05	13647.9
2	0	0	1	0	0	94.7701	0.402202	0.40194	-0.0245297	5	0.000188918	13	0	4.6736	-9.85948e-06	16385.9
2	0	0	1	0	0	96.6674	0.383229	0.382958	-0.0341097	5	0.000132381	13	0	6.5709	-1.30626e-05	11227.2
2	0	0	1	0	0	98.5648	0.364254	0.363959	-0.0308687	5	7.09839e-05	13	0	8.4683	-1.12349e-05	11790.5
2	1	0	1	0	1	100.43	0.354419	0.354129	0.0337912	6	3.2115e-05	13	0	0.3445	1.19665e-05	10479.9
2	1	0	1	0	1	102.327	0.373392	0.373198	0.0292274	6	9.19109e-05	13	0	2.2418	1.09076e-05	12768.8
2	1	0	1	0	1	104.224	0.392366	0.392084	0.031943	6	0.000150327	13	0	4.1392	1.25244e-05	12274.5
2	1	0	1	0	1	106.122	0.411339	0.411166	0.0269177	6	0.00020571	13	0	6.0366	1.10676e-05	15274.9
2	1	0	1	0	1	108.019	0.430313	0.430118	0.028788	6	0.000258992	13	0	7.934	1.23822e-05	14940.9
2	1	0	1	0	1	109.917	0.449287	0.449063	0.0255601	6	0.000309914	13	0	9.8314	1.14781e-05	17568.9
2	0	0	1	0	1	111.821	0.431661	0.431381	-0.0213298	6	0.000271656	13	0	1.7925	-9.20127e-06	20224.3
2	0	0	1	0	1	113.718	0.412688	0.41249	-0.0289607	6	0.000221895	13	0	3.6899	-1.1946e-05	14243.1
2	0	0	1	0	1	115.615	0.393714	0.393379	-0.0284044	6	0.000168214	13	0	5.5873	-1.11737e-05	13849.2
2	0	0	1	0	1	117.513	0.374741	0.3745	-0.0314405	6	0.000109523	13	0	7.4846	-1.17745e-05	11911.4
2	0	0	1	0	1	119.41	0.355766	0.355459	-0.0386043	6	4.56385e-05	13	0	9.382	-1.37222e-05	9207.74
2	1	0	1	0	0	121.275	0.362906	0.362676	0.0271109	7	6.12468e-05	13	0	1.2583	9.83247e-06	13377.5
2	1	0	1	0	0	123.173	0.381881	0.381664	0.0365256	7	0.000120595	13	0	3.1557	1.39405e-05	10449.2
2	1	0	1	0	0	125.07	0.400854	0.400594	0.0230267	7	0.00017763	13	0	5.053	9.22436e-06	17396.9
2	1	0	1	0	0	126.967	0.419828	0.419562	0.0345087	7	0.000231983	13	0	6.9504	1.44785e-05	12158.1
2	1	0	1	0	0	128.865	0.438801	0.438573	0.021903	7	0.000284043	13	0	8.8478	9.60605e-06	20023.4
2	0	0	1	0	0	130.769	0.442146	0.441904	-0.0168744	7	0.000297036	13	0	0.744	-7.45687e-06	26187.8
2	0	0	1	0	0	132.666	0.423173	0.422946	-0.0312537	7	0.000249987	13	0	2.6413	-1.32186e-05	13532.7
2	0	0	1	0	0	134.563	0.404199	0.404	-0.0250893	7	0.000198618	13	0	4.5387	-1.01361e-05	16102.5
2	0	0	1	0	0	136.461	0.385226	0.385008	-0.0312177	7	0.000142689	13	0	6.4361	-1.20191e-05	12333
2	0	0	1	0	0	138.358	0.366252	0.365986	-0.0354838	7	8.21349e-05	13	0	8.3335	-1.29866e-05	10314.2
2	1	0	1	0	1	140.208	0.352271	0.351972	0.0299796	8	2.97813e-05	12	0	0.1298	1.0552e-05	11740.4
2	1	0	1	0	1	142.121	0.371394	0.371231	0.0379553	8	9.00505e-05	13	0	2.0421	1.40902e-05	9780.73
2	1	0	1	0	1	144.018	0.390368	0.390159	0.0238026	8	0.000148448	13	0	3.9395	9.2868e-06	16391.4
2	1	0	1	0	1	145.915	0.409343	0.409129	0.0343345	8	0.0002042	13	0	5.8369	1.40472e-05	11916
2	1	0	1	0	1	147.813	0.428316	0.428075	0.0241974	8	0.000257307	13	0	7.7342	1.03583e-05	17691
2	1	0	1	0	1	149.71	0.44729	0.447052	0.0244346	8	0.000308709	13	0	9.6316	1.09235e-05	18295.9
2	0	0	1	0	1	151.614	0.433658	0.433411	-0.0190346	8	0.000277837	13	0	1.5928	-8.24981e-06	22769.6
2	0	0	1	0	1	153.511	0.414685	0.414503	-0.0315412	8	0.000228776	13	0	3.4901	-1.30739e-05	13141.6
2	0	0	1	0	1	155.409	0.395711	0.395418	-0.0309164	8	0.000175621	13	0	5.3875	-1.22249e-05	12789.9
2	0	0	1	0	1	157.306	0.376737	0.3765	-0.0249821	8	0.00011769	13	0	7.2849	-9.40577e-06	15070.8
2	0	0	1	0	1	159.204	0.357764	0.357525	-0.030304	8	5.43742e-05	13	0	9.1823	-1.08344e-05	11797.9
2	1	0	1	0	0	161.069	0.360909	0.360664	0.0319711	9	5.8333e-05	13	0	0.9936	1.15308e-05	11281
2	1	0	1	0	0	162.966	0.379883	0.379629	0.0373037	9	0.000117798	13	0	2.891	1.41615e-05	10176.7
2	1	0	1	0	0	164.863	0.398856	0.398667	0.0352037	9	0.000174796	13	0	4.7883	1.40345e-05	11324.6
2	1	0	1	0	0	166.761	0.417831	0.417607	0.0278137	9	0.000229265	13	0	6.6857	1.16152e-05	15014.4
2	1	0	1	0	0	168.658	0.436804	0.436567	0.0214761	9	0.000281521	13	0	8.583	9.37576e-06	20328.1
2	0	0	1	0	0	170.562	0.444144	0.44385	-0.0256958	9	0.000304875	13	0	0.5443	-1.14051e-05	17273.3
2	0	0	1	0	0	172.46	0.425171	0.424905	-0.0228927	9	0.000258465	13	0	2.4416	-9.72722e-06	18560.7
2	0	0	1	0	0	174.357	0.406196	0.405942	-0.0215635	9	0.000207457	13	0	4.339	-8.75354e-06	18825.4
2	0	0	1	0	0	176.254	0.387223	0.386932	-0.0271548	9	0.000152184	13	0	6.2363	-1.05071e-05	14249.1
2	0	0	1	0	0	178.152	0.368249	0.367959	-0.0389961	9	9.23257e-05	13	0	8.1337	-1.4349e-05	9435.78
2	0	0	1	0	1	179.979	0.35005	0.349914	-0.019797	10	2.89857e-05	13	0	9.9612	-6.92724e-06	17675.2
2	1	0	1	0	1	181.914	0.369398	0.369241	0.0312001	10	8.72078e-05	13	0	1.8424	1.15204e-05	11834.6
2	1	0	1	0	1	183.811	0.388371	0.38813	0.0330686	10	0.000145867	13	0	3.7398	1.28349e-05	11737.1
2	1	0	1	0	1	185.709	0.407345	0.407136	0.0229044	10	0.000201616	13	0	5.6372	9.32521e-06	17775.4
2	1	0	1	0	1	187.606	0.426318	0.426073	0.0337807	10	0.000254914	13	0	7.5345	1.4393e-05	12612.9
2	1	0	1	0	1	189.504	0.445293	0.445061	0.0241229	10	0.000306384	13	0	9.4319	1.07362e-05	18449.8
2	0	0	1	0	1	191.408	0.435656	0.435439	-0.0299648	10	0.000286114	13	0	1.3282	-1.30478e-05	14531.7
2	0	0	1	0	1	193.305	0.416682	0.416468	-0.0201191	10	0.00023757	13	0	3.2256	-8.37897e-06	20700.1
2	0	0	1	0	1	195.202	0.397709	0.397448	-0.0329277	10	0.000184937	13	0	5.1229	-1.30871e-05	12070.3
2	0	0	1	0	1	197.1	0.378734	0.378473	-0.0333668	10	0.000127595	13	0	7.0203	-1.26284e-05	11342.8
2	0	0	1	0	1	198.997	0.359761	0.359503	-0.0280767	10	6.52539e-05	13	0	8.9176	-1.00937e-05	12804.4
2	0	0	0	0	1	199.971	0.35	0.349704	-0.0485379	10	3.05811e-05	13	0	9.8913	-1.69739e-05	7204.76