File: ACS_Catal_2026/Figures_Na_K/main_figures/data/EC/20251112_2-148_alpha_reproducibility/20251112_2-148_001_alpha_reproducibility_1_K1_02_PEIS_C01.mpt
EC-Lab ASCII FILE
Nb header lines : 63

Potentio Electrochemical Impedance Spectroscopy

Run on channel : 1 (SN 69187)
User :
CE vs. WE compliance from -10 V to 10 V
Electrode connection : standard
Potential control : Ewe
Ewe ctrl range : min = -1.00 V, max = 1.00 V
Safety Limits :
	Do not start on E overload
Acquisition started on : 11/12/2025 13:18:25.019
Loaded Setting File :  C:\Users\User\Documents\EC-Lab\Data\Yatsuzuka\20251030_2-147_gamma_reproducibility\20251030_2-147_001_gamma1_K_1.mps
Saved on :
	File : 20251112_2-148_001_alpha_reproducibility_1_K1_02_PEIS_C01.mpr
	Directory : C:\Users\User\Documents\EC-Lab\Data\Yatsuzuka\20251112_2-148_alpha_reproducibility\
	Host : 192.109.209.127
Device : SP-150e (SN .003883)
Address : 192.109.209.128
EC-LAB for windows v11.52 (software)
Internet server v11.52 (firmware)
Command interpretor v11.50 (firmware)
Electrode material :
Initial state :
Electrolyte :
Comments :
Electrode surface area : 0.001 cm2
Characteristic mass : 0.001 g
Equivalent Weight : 0.000 g/eq.
Density : 0.000 g/cm3
Volume (V) : 0.001 cm3
Cycle Definition : Charge/Discharge alternance
Mode                Single sine
E (V)               0.4500
vs.                 Ref
tE (h:m:s)          0:00:0.0000
record              0
dI                  0.000
unit dI             mA
dt (s)              0.000
fi                  500.000
unit fi             kHz
ff                  1.000
unit ff             Hz
Nd                  6
Points              per decade
spacing             Logarithmic
Va (mV)             10.0
pw                  0.10
Na                  2
corr                0
E range min (V)     -1.000
E range max (V)     1.000
I Range             Auto
Bandwidth           5
nc cycles           0
goto Ns'            0
nr cycles           0
inc. cycle          0

freq/Hz	Re(Z)/Ohm	-Im(Z)/Ohm	|Z|/Ohm	Phase(Z)/deg	time/s	<Ewe>/V	<I>/mA	Cs/uF	Cp/uF	cycle number	I Range	|Ewe|/V	|I|/A	Ns	(Q-Qo)/mA.h	Re(Y)/Ohm-1	Im(Y)/Ohm-1	|Y|/Ohm-1	Phase(Y)/deg	Re(C)/nF	Im(C)/nF	|C|/nF	Phase(C)/deg	Re(M)	Im(M)	|M|	Phase(M)/deg	Re(Permittivity)	Im(Permittivity)	|Permittivity|	Phase(Permittivity)/deg	Re(Resistivity)/Ohm.cm	Im(Resistivity)/Ohm.cm	|Resistivity|/Ohm.cm	Phase(Resistivity)/deg	Re(Conductivity)/mS/cm	Im(Conductivity)/mS/cm	|Conductivity|/mS/cm	Phase(Conductivity)/deg	Tan(Delta)	Loss Angle(Delta)/deg	dq/mA.h	Pwe/W	Rwe/Ohm
500019	8.224	-3.00349	8.75529	20.0627	201.599	0.450195	0.00757251	-0.105976	-0.0124715	1	10	0.00277569	0.00031703	0	2.14094e-05	0.107286	-0.0391819	0.114217	-20.0627	-12.4715	34.1489	36.355	-110.063	0.0000000E+000	0.0000000E+000	0.0000000E+000	110.063	0.0000000E+000	0.0000000E+000	0.0000000E+000	-110.063	0.0000000E+000	0.0000000E+000	0.0000000E+000	20.0627	0.0000000E+000	0.0000000E+000	0.0000000E+000	-20.0627	2.73815	69.9373	2.14094e-05	3.40911e-06	59451.2
231063	2.74841	-1.22751	3.01008	24.0667	202.746	0.449905	0.141134	-0.561134	-0.0933167	1	9	0.00503706	0.0016734	0	3.62651e-05	0.303339	-0.135478	0.332218	-24.0667	-93.3167	208.938	228.83	-114.067	0.0000000E+000	0.0000000E+000	0.0000000E+000	114.067	0.0000000E+000	0.0000000E+000	0.0000000E+000	-114.067	0.0000000E+000	0.0000000E+000	0.0000000E+000	24.0667	0.0000000E+000	0.0000000E+000	0.0000000E+000	-24.0667	2.23902	65.9333	1.35309e-05	6.3497e-05	3187.77
106786	2.22425	-0.26527	2.24001	6.80113	203.59	0.449821	0.136065	-5.61845	-0.0787938	1	9	0.0104961	0.00468575	0	6.35833e-05	0.443285	-0.0528674	0.446426	-6.80113	-78.7938	660.674	665.356	-96.8011	0.0000000E+000	0.0000000E+000	0.0000000E+000	96.8011	0.0000000E+000	0.0000000E+000	0.0000000E+000	-96.8011	0.0000000E+000	0.0000000E+000	0.0000000E+000	6.80113	0.0000000E+000	0.0000000E+000	0.0000000E+000	-6.80113	8.38485	83.1989	1.09796e-05	6.1205e-05	3305.92
49352.4	2.20813	-0.0668528	2.20914	1.73415	204.434	0.449804	0.146017	-48.2383	-0.0441759	1	9	0.0106685	0.00482927	0	0.000105695	0.452458	-0.0136985	0.452665	-1.73415	-44.1759	1459.12	1459.79	-91.7341	0.0000000E+000	0.0000000E+000	0.0000000E+000	91.7341	0.0000000E+000	0.0000000E+000	0.0000000E+000	-91.7341	0.0000000E+000	0.0000000E+000	0.0000000E+000	1.73415	0.0000000E+000	0.0000000E+000	0.0000000E+000	-1.73415	33.0297	88.2659	1.68128e-05	6.56793e-05	3080.48
22806.6	2.22347	-0.00976204	2.22349	0.251552	205.279	0.449795	0.134556	-714.858	-0.0137794	1	9	0.0105719	0.00475465	0	0.000135674	0.449738	-0.00197455	0.449743	-0.251552	-13.7792	3138.49	3138.52	-90.2515	0.0000000E+000	0.0000000E+000	0.0000000E+000	90.2515	0.0000000E+000	0.0000000E+000	0.0000000E+000	-90.2515	0.0000000E+000	0.0000000E+000	0.0000000E+000	0.251552	0.0000000E+000	0.0000000E+000	0.0000000E+000	-0.251552	227.767	89.7485	1.06048e-05	6.05225e-05	3342.82
10540.4	2.23333	0.0105417	2.23335	-0.270443	206.124	0.449804	0.139532	1432.37	0.0319123	1	9	0.0105018	0.00470226	0	0.000157849	0.447752	0.00211346	0.447757	0.270443	31.9127	6760.85	6760.93	-89.7296	0.0000000E+000	0.0000000E+000	0.0000000E+000	89.7296	0.0000000E+000	0.0000000E+000	0.0000000E+000	-89.7296	0.0000000E+000	0.0000000E+000	0.0000000E+000	-0.270443	0.0000000E+000	0.0000000E+000	0.0000000E+000	0.270443	211.857	89.7296	1.20633e-05	6.27619e-05	3223.67
4871.56	2.24574	0.025192	2.24588	-0.642699	207.337	0.449778	0.114222	1296.85	0.16317	1	9	0.0103515	0.0046091	0	0.000191311	0.445231	0.00499447	0.445259	0.642699	163.171	14545.8	14546.7	-89.3573	0.0000000E+000	0.0000000E+000	0.0000000E+000	89.3573	0.0000000E+000	0.0000000E+000	0.0000000E+000	-89.3573	0.0000000E+000	0.0000000E+000	0.0000000E+000	-0.642699	0.0000000E+000	0.0000000E+000	0.0000000E+000	0.642699	89.145	89.3573	1.84484e-05	5.13747e-05	3937.74
2250.72	2.25209	0.04143	2.25247	-1.05391	208.712	0.449771	0.117484	1706.8	0.577423	1	9	0.0101708	0.00451538	0	0.000229488	0.443881	0.00816573	0.443956	1.05391	577.424	31388.1	31393.4	-88.9461	0.0000000E+000	0.0000000E+000	0.0000000E+000	88.9461	0.0000000E+000	0.0000000E+000	0.0000000E+000	-88.9461	0.0000000E+000	0.0000000E+000	0.0000000E+000	-1.05391	0.0000000E+000	0.0000000E+000	0.0000000E+000	1.05391	54.359	88.9461	2.41233e-05	5.28408e-05	3828.36
1040.33	2.25937	0.074305	2.26059	-1.88364	209.864	0.449771	0.119478	2058.87	2.22445	1	9	0.0100678	0.00445362	0	0.000258587	0.442123	0.0145403	0.442362	1.88364	2224.45	67638.1	67674.6	-88.1164	0.0000000E+000	0.0000000E+000	0.0000000E+000	88.1164	0.0000000E+000	0.0000000E+000	0.0000000E+000	-88.1164	0.0000000E+000	0.0000000E+000	0.0000000E+000	-1.88364	0.0000000E+000	0.0000000E+000	0.0000000E+000	1.88364	30.4067	88.1164	1.18667e-05	5.37377e-05	3764.46
480.769	2.26866	0.1404	2.273	-3.54133	210.794	0.44978	0.112974	2357.85	8.99604	1	9	0.0103275	0.00454357	0	0.000290644	0.439107	0.0271749	0.439947	3.54133	8996.03	145363	145641	-86.4587	0.0000000E+000	0.0000000E+000	0.0000000E+000	86.4587	0.0000000E+000	0.0000000E+000	0.0000000E+000	-86.4587	0.0000000E+000	0.0000000E+000	0.0000000E+000	-3.54133	0.0000000E+000	0.0000000E+000	0.0000000E+000	3.54133	16.1586	86.4587	1.61051e-05	5.08132e-05	3981.28
222.061	2.28351	0.286302	2.30138	-7.14635	211.718	0.449778	0.114092	2503.36	38.7431	1	9	0.0104159	0.00452593	0	0.000319526	0.431145	0.0540562	0.434521	7.14635	38743.1	309010	311429	-82.8537	0.0000000E+000	0.0000000E+000	0.0000000E+000	82.8537	0.0000000E+000	0.0000000E+000	0.0000000E+000	-82.8537	0.0000000E+000	0.0000000E+000	0.0000000E+000	-7.14635	0.0000000E+000	0.0000000E+000	0.0000000E+000	7.14635	7.97587	82.8537	1.53915e-05	5.1316e-05	3942.24
102.667	2.3021	0.593032	2.37725	-14.4456	212.913	0.449781	0.00809438	2614.02	162.673	1	10	0.0104823	0.0044094	0	0.000339824	0.407355	0.104937	0.420654	14.4456	162673	631481	652097	-75.5544	0.0000000E+000	0.0000000E+000	0.0000000E+000	75.5544	0.0000000E+000	0.0000000E+000	0.0000000E+000	-75.5544	0.0000000E+000	0.0000000E+000	0.0000000E+000	-14.4456	0.0000000E+000	0.0000000E+000	0.0000000E+000	14.4456	3.88191	75.5544	7.41474e-06	3.6407e-06	55567.1
47.4443	2.30049	1.23687	2.61191	-28.2649	213.824	0.449773	0.0129188	2712.15	608.194	1	10	0.0105261	0.00403003	0	0.000348535	0.337212	0.181304	0.382862	28.2649	608194	1.1312e+06	1.28433e+06	-61.7351	0.0000000E+000	0.0000000E+000	0.0000000E+000	61.7351	0.0000000E+000	0.0000000E+000	0.0000000E+000	-61.7351	0.0000000E+000	0.0000000E+000	0.0000000E+000	-28.2649	0.0000000E+000	0.0000000E+000	0.0000000E+000	28.2649	1.85993	61.7351	4.96718e-06	5.81053e-06	34815.3
21.9144	2.20595	2.67992	3.47105	-50.5409	214.692	0.449771	0.00911737	2709.99	1615.44	1	10	0.0105536	0.00304046	0	0.000357046	0.183094	0.222434	0.288097	50.5409	1.61544e+06	1.32973e+06	2.09232e+06	-39.4591	0.0000000E+000	0.0000000E+000	0.0000000E+000	39.4591	0.0000000E+000	0.0000000E+000	0.0000000E+000	-39.4591	0.0000000E+000	0.0000000E+000	0.0000000E+000	-50.5409	0.0000000E+000	0.0000000E+000	0.0000000E+000	50.5409	0.823138	39.4591	9.57972e-06	4.10073e-06	49331.2
10.1329	2.0061	6.05679	6.38037	-71.6743	215.619	0.449783	0.00823034	2593.24	2336.87	1	10	0.0105606	0.00165517	0	0.000360579	0.049279	0.148782	0.156731	71.6743	2.33687e+06	774009	2.46172e+06	-18.3257	0.0000000E+000	0.0000000E+000	0.0000000E+000	18.3257	0.0000000E+000	0.0000000E+000	0.0000000E+000	-18.3257	0.0000000E+000	0.0000000E+000	0.0000000E+000	-71.6743	0.0000000E+000	0.0000000E+000	0.0000000E+000	71.6743	0.331216	18.3257	2.74242e-07	3.70187e-06	54649.3
4.68375	1.89469	13.6492	13.7801	-82.0971	216.736	0.449774	-0.000296356	2489.54	2442.48	1	11	0.0105611	0.000766405	0	0.000360082	0.00997781	0.0718793	0.0725686	82.0971	2.44248e+06	339048	2.4659e+06	-7.90292	0.0000000E+000	0.0000000E+000	0.0000000E+000	7.90292	0.0000000E+000	0.0000000E+000	0.0000000E+000	-7.90292	0.0000000E+000	0.0000000E+000	0.0000000E+000	-82.0971	0.0000000E+000	0.0000000E+000	0.0000000E+000	82.0971	0.138813	7.90292	5.71854e-06	-1.33293e-07	1.51768e+06
2.16533	2.38139	29.562	29.6577	-85.3944	218.451	0.449787	0.00330803	2486.36	2470.33	1	11	0.0105497	0.000355715	0	0.000350938	0.00270742	0.0336092	0.033718	85.3944	2.47033e+06	199000	2.47833e+06	-4.60558	0.0000000E+000	0.0000000E+000	0.0000000E+000	4.60558	0.0000000E+000	0.0000000E+000	0.0000000E+000	-4.60558	0.0000000E+000	0.0000000E+000	0.0000000E+000	-85.3944	0.0000000E+000	0.0000000E+000	0.0000000E+000	85.3944	0.080556	4.60558	-6.97754e-06	1.48791e-06	135968
1.00006	3.78931	63.0019	63.1157	-86.558	222.791	0.449785	0.00188136	2526.03	2516.93	1	12	0.0105514	0.000167175	0	0.000357132	0.00095123	0.0158153	0.0158439	86.558	2.51693e+06	151383	2.52148e+06	-3.44197	0.0000000E+000	0.0000000E+000	0.0000000E+000	3.44197	0.0000000E+000	0.0000000E+000	0.0000000E+000	-3.44197	0.0000000E+000	0.0000000E+000	0.0000000E+000	-86.558	0.0000000E+000	0.0000000E+000	0.0000000E+000	86.558	0.0601461	3.44197	6.2557e-06	8.46207e-07	239075