File: ACS_Catal_2026/Figures_Na_K/main_figures/data/EC/20251112_2-148_alpha_reproducibility/20251112_2-148_003_alpha_Na_first_1_K1_02_PEIS_C01.mpt
EC-Lab ASCII FILE
Nb header lines : 63

Potentio Electrochemical Impedance Spectroscopy

Run on channel : 1 (SN 69187)
User :
CE vs. WE compliance from -10 V to 10 V
Electrode connection : standard
Potential control : Ewe
Ewe ctrl range : min = -1.00 V, max = 1.00 V
Safety Limits :
	Do not start on E overload
Acquisition started on : 11/12/2025 16:18:27.289
Loaded Setting File :  C:\Users\User\Documents\EC-Lab\Data\Yatsuzuka\20251030_2-147_gamma_reproducibility\20251030_2-147_001_gamma1_K_1.mps
Saved on :
	File : 20251112_2-148_003_alpha_Na_first_1_K1_02_PEIS_C01.mpr
	Directory : C:\Users\User\Documents\EC-Lab\Data\Yatsuzuka\20251112_2-148_alpha_reproducibility\
	Host : 192.109.209.127
Device : SP-150e (SN .003883)
Address : 192.109.209.128
EC-Lab for windows v11.52 (software)
Internet server v11.52 (firmware)
Command interpretor v11.50 (firmware)
Electrode material :
Initial state :
Electrolyte :
Comments :
Electrode surface area : 0.001 cm2
Characteristic mass : 0.001 g
Equivalent Weight : 0.000 g/eq.
Density : 0.000 g/cm3
Volume (V) : 0.001 cm3
Cycle Definition : Charge/Discharge alternance
Mode                Single sine
E (V)               0.4500
vs.                 Ref
tE (h:m:s)          0:00:0.0000
record              0
dI                  0.000
unit dI             mA
dt (s)              0.000
fi                  500.000
unit fi             kHz
ff                  1.000
unit ff             Hz
Nd                  6
Points              per decade
spacing             Logarithmic
Va (mV)             10.0
pw                  0.10
Na                  2
corr                0
E range min (V)     -1.000
E range max (V)     1.000
I Range             Auto
Bandwidth           5
nc cycles           0
goto Ns'            0
nr cycles           0
inc. cycle          0

freq/Hz	Re(Z)/Ohm	-Im(Z)/Ohm	|Z|/Ohm	Phase(Z)/deg	time/s	<Ewe>/V	<I>/mA	Cs/uF	Cp/uF	cycle number	I Range	|Ewe|/V	|I|/A	Ns	(Q-Qo)/mA.h	Re(Y)/Ohm-1	Im(Y)/Ohm-1	|Y|/Ohm-1	Phase(Y)/deg	Re(C)/nF	Im(C)/nF	|C|/nF	Phase(C)/deg	Re(M)	Im(M)	|M|	Phase(M)/deg	Re(Permittivity)	Im(Permittivity)	|Permittivity|	Phase(Permittivity)/deg	Re(Resistivity)/Ohm.cm	Im(Resistivity)/Ohm.cm	|Resistivity|/Ohm.cm	Phase(Resistivity)/deg	Re(Conductivity)/mS/cm	Im(Conductivity)/mS/cm	|Conductivity|/mS/cm	Phase(Conductivity)/deg	Tan(Delta)	Loss Angle(Delta)/deg	dq/mA.h
500019	15.4984	-2.17031	15.6496	7.97154	201.599	0.450141	0.010282	-0.14666	-0.00282064	1	10	0.00502173	0.000320885	0	2.10304e-05	0.0632819	-0.00886163	0.0638993	-7.97154	-2.82064	20.1425	20.339	-97.9715	0.0000000E+000	0.0000000E+000	0.0000000E+000	97.9715	0.0000000E+000	0.0000000E+000	0.0000000E+000	-97.9715	0.0000000E+000	0.0000000E+000	0.0000000E+000	7.97154	0.0000000E+000	0.0000000E+000	0.0000000E+000	-7.97154	7.14111	82.0285	2.10304e-05
231063	8.3461	-0.975499	8.40292	6.66653	202.444	0.449829	0.0098888	-0.706096	-0.00951606	1	10	0.0101687	0.00121014	0	2.55076e-05	0.118202	-0.0138155	0.119006	-6.66653	-9.51606	81.4168	81.971	-96.6665	0.0000000E+000	0.0000000E+000	0.0000000E+000	96.6665	0.0000000E+000	0.0000000E+000	0.0000000E+000	-96.6665	0.0000000E+000	0.0000000E+000	0.0000000E+000	6.66653	0.0000000E+000	0.0000000E+000	0.0000000E+000	-6.66653	8.55573	83.3335	2.23091e-06
106786	7.34444	-0.25949	7.34902	2.0235	203.288	0.449767	0.0133101	-5.7436	-0.00716087	1	10	0.0109803	0.00149411	0	3.55989e-05	0.135988	-0.00480464	0.136073	-2.0235	-7.16086	202.677	202.803	-92.0235	0.0000000E+000	0.0000000E+000	0.0000000E+000	92.0235	0.0000000E+000	0.0000000E+000	0.0000000E+000	-92.0235	0.0000000E+000	0.0000000E+000	0.0000000E+000	2.0235	0.0000000E+000	0.0000000E+000	0.0000000E+000	-2.0235	28.3034	87.9765	5.67843e-06
49352.4	7.2435	-0.0749282	7.24389	0.592658	204.133	0.449761	0.0143685	-43.0394	-0.00460484	1	10	0.0106431	0.00146926	0	3.81472e-05	0.13804	-0.00142791	0.138047	-0.592658	-4.60484	445.161	445.185	-90.5927	0.0000000E+000	0.0000000E+000	0.0000000E+000	90.5927	0.0000000E+000	0.0000000E+000	0.0000000E+000	-90.5927	0.0000000E+000	0.0000000E+000	0.0000000E+000	0.592658	0.0000000E+000	0.0000000E+000	0.0000000E+000	-0.592658	96.6725	89.4073	1.66493e-06
22806.6	7.22688	-0.00995352	7.22688	0.078913	204.977	0.449775	0.0134554	-701.106	-0.00132995	1	10	0.0105177	0.00145536	0	4.16707e-05	0.138372	-0.000190579	0.138372	-0.078913	-1.32991	965.626	965.627	-90.0789	0.0000000E+000	0.0000000E+000	0.0000000E+000	90.0789	0.0000000E+000	0.0000000E+000	0.0000000E+000	-90.0789	0.0000000E+000	0.0000000E+000	0.0000000E+000	0.078913	0.0000000E+000	0.0000000E+000	0.0000000E+000	-0.078913	726.062	89.9211	1.64758e-06
10540.4	7.22444	0.00675283	7.22444	-0.0535555	205.821	0.449769	0.0101255	2236.03	0.00195362	1	10	0.0103646	0.00143465	0	4.30916e-05	0.138419	0.000129383	0.138419	0.0535555	1.95373	2090.06	2090.06	-89.9464	0.0000000E+000	0.0000000E+000	0.0000000E+000	89.9464	0.0000000E+000	0.0000000E+000	0.0000000E+000	-89.9464	0.0000000E+000	0.0000000E+000	0.0000000E+000	-0.0535555	0.0000000E+000	0.0000000E+000	0.0000000E+000	0.0535555	1069.84	89.9464	1.22776e-06
4871.56	7.23243	0.026467	7.23248	-0.209673	207.034	0.44976	0.0137238	1234.37	0.0165304	1	10	0.0101025	0.00139682	0	4.42709e-05	0.138264	0.000505977	0.138265	0.209673	16.5303	4517.12	4517.15	-89.7903	0.0000000E+000	0.0000000E+000	0.0000000E+000	89.7903	0.0000000E+000	0.0000000E+000	0.0000000E+000	-89.7903	0.0000000E+000	0.0000000E+000	0.0000000E+000	-0.209673	0.0000000E+000	0.0000000E+000	0.0000000E+000	0.209673	273.262	89.7903	-1.00188e-08
2250.72	7.24185	0.0649213	7.24214	-0.513629	207.965	0.44977	0.0126038	1089.21	0.0875291	1	10	0.0108664	0.00150044	0	4.7486e-05	0.138075	0.00123781	0.138081	0.513629	87.5287	9763.7	9764.09	-89.4864	0.0000000E+000	0.0000000E+000	0.0000000E+000	89.4864	0.0000000E+000	0.0000000E+000	0.0000000E+000	-89.4864	0.0000000E+000	0.0000000E+000	0.0000000E+000	-0.513629	0.0000000E+000	0.0000000E+000	0.0000000E+000	0.513629	111.548	89.4864	2.75313e-06
1040.33	7.24832	0.110639	7.24916	-0.8745	209.117	0.449764	0.0130809	1382.74	0.322092	1	10	0.0100736	0.00138962	0	5.09743e-05	0.137931	0.00210539	0.137947	0.8745	322.091	21101.3	21103.8	-89.1255	0.0000000E+000	0.0000000E+000	0.0000000E+000	89.1255	0.0000000E+000	0.0000000E+000	0.0000000E+000	-89.1255	0.0000000E+000	0.0000000E+000	0.0000000E+000	-0.8745	0.0000000E+000	0.0000000E+000	0.0000000E+000	0.8745	65.5133	89.1255	5.54952e-07
480.769	7.26714	0.220465	7.27048	-1.73766	210.046	0.449766	0.0100509	1501.57	1.38069	1	10	0.010114	0.0013911	0	5.54808e-05	0.137479	0.00417073	0.137542	1.73766	1380.69	45511.4	45532.4	-88.2623	0.0000000E+000	0.0000000E+000	0.0000000E+000	88.2623	0.0000000E+000	0.0000000E+000	0.0000000E+000	-88.2623	0.0000000E+000	0.0000000E+000	0.0000000E+000	-1.73766	0.0000000E+000	0.0000000E+000	0.0000000E+000	1.73766	32.9628	88.2623	2.05325e-06
222.061	7.30213	0.443705	7.31559	-3.47724	210.97	0.449769	0.0105205	1615.3	5.94215	1	10	0.0101317	0.00138495	0	5.81252e-05	0.136443	0.00829078	0.136694	3.47724	5942.15	97790.9	97971.3	-86.5228	0.0000000E+000	0.0000000E+000	0.0000000E+000	86.5228	0.0000000E+000	0.0000000E+000	0.0000000E+000	-86.5228	0.0000000E+000	0.0000000E+000	0.0000000E+000	-3.47724	0.0000000E+000	0.0000000E+000	0.0000000E+000	3.47724	16.4572	86.5228	3.75279e-07
102.667	7.36888	0.904474	7.42418	-6.99762	211.907	0.449773	0.0130287	1713.92	25.4382	1	10	0.0101389	0.00136566	0	6.07649e-05	0.133692	0.0164096	0.134695	6.99762	25438.2	207249	208804	-83.0024	0.0000000E+000	0.0000000E+000	0.0000000E+000	83.0024	0.0000000E+000	0.0000000E+000	0.0000000E+000	-83.0024	0.0000000E+000	0.0000000E+000	0.0000000E+000	-6.99762	0.0000000E+000	0.0000000E+000	0.0000000E+000	6.99762	8.14714	83.0024	1.0439e-06
47.4443	7.48611	1.81544	7.70309	-13.6315	212.818	0.449754	0.0120523	1847.8	102.633	1	10	0.0101457	0.0013171	0	6.21329e-05	0.126161	0.030595	0.129818	13.6315	102633	423216	435482	-76.3685	0.0000000E+000	0.0000000E+000	0.0000000E+000	76.3685	0.0000000E+000	0.0000000E+000	0.0000000E+000	-76.3685	0.0000000E+000	0.0000000E+000	0.0000000E+000	-13.6315	0.0000000E+000	0.0000000E+000	0.0000000E+000	13.6315	4.12358	76.3685	7.45676e-07
21.9144	7.67933	3.68507	8.51774	-25.6349	213.686	0.449754	0.00859556	1970.81	368.881	1	10	0.0101572	0.00119247	0	6.41864e-05	0.105846	0.0507922	0.117402	25.6349	368881	768713	852639	-64.3651	0.0000000E+000	0.0000000E+000	0.0000000E+000	64.3651	0.0000000E+000	0.0000000E+000	0.0000000E+000	-64.3651	0.0000000E+000	0.0000000E+000	0.0000000E+000	-25.6349	0.0000000E+000	0.0000000E+000	0.0000000E+000	25.6349	2.0839	64.3651	-1.0981e-07
10.1329	7.94787	7.53519	10.9521	-43.4732	214.613	0.449759	0.00945647	2084.44	986.704	1	10	0.0101694	0.000928536	0	6.12762e-05	0.0662611	0.0628206	0.091307	43.4732	986704	1.04074e+06	1.43413e+06	-46.5268	0.0000000E+000	0.0000000E+000	0.0000000E+000	46.5268	0.0000000E+000	0.0000000E+000	0.0000000E+000	-46.5268	0.0000000E+000	0.0000000E+000	0.0000000E+000	-43.4732	0.0000000E+000	0.0000000E+000	0.0000000E+000	43.4732	1.05477	46.5268	-2.79428e-06
4.68375	8.5114	15.8507	17.9913	-61.7654	215.663	0.449771	0.000711139	2143.77	1663.98	1	11	0.0101809	0.000565879	0	6.04418e-05	0.0262951	0.048969	0.0555823	61.7654	1.66398e+06	893513	1.8887e+06	-28.2346	0.0000000E+000	0.0000000E+000	0.0000000E+000	28.2346	0.0000000E+000	0.0000000E+000	0.0000000E+000	-28.2346	0.0000000E+000	0.0000000E+000	0.0000000E+000	-61.7654	0.0000000E+000	0.0000000E+000	0.0000000E+000	61.7654	0.536974	28.2346	1.76586e-07
2.16533	9.26316	33.4765	34.7345	-74.5329	217.378	0.449784	0.00222323	2195.61	2039.46	1	11	0.0101762	0.000292972	0	6.57097e-05	0.00767782	0.0277472	0.0287898	74.5329	2.03946e+06	564331	2.1161e+06	-15.4671	0.0000000E+000	0.0000000E+000	0.0000000E+000	15.4671	0.0000000E+000	0.0000000E+000	0.0000000E+000	-15.4671	0.0000000E+000	0.0000000E+000	0.0000000E+000	-74.5329	0.0000000E+000	0.0000000E+000	0.0000000E+000	74.5329	0.276706	15.4671	-1.79509e-06
1.00006	10.8077	70.8102	71.6302	-81.3219	221.718	0.449783	0.000432428	2247.48	2196.32	1	12	0.0101786	0.0001421	0	5.96226e-05	0.00210641	0.0138008	0.0139606	81.3219	2.19632e+06	335223	2.22175e+06	-8.67806	0.0000000E+000	0.0000000E+000	0.0000000E+000	8.67806	0.0000000E+000	0.0000000E+000	0.0000000E+000	-8.67806	0.0000000E+000	0.0000000E+000	0.0000000E+000	-81.3219	0.0000000E+000	0.0000000E+000	0.0000000E+000	81.3219	0.15263	8.67807	-2.03252e-07