File: ACS_Catal_2026/Figures_Na_K/main_figures/data/EC/20251112_2-148_alpha_reproducibility/20251112_2-148_006_gamma_reproducibility_2_K2_stopped_01_CVA_C02.mpt
EC-Lab ASCII FILE
Nb header lines : 66

Cyclic Voltammetry Advanced

Run on channel : 2 (SN 69290)
User :
CE vs. WE compliance from -10 V to 10 V
Electrode connection : standard
Potential control : Ewe
Ewe ctrl range : min = -1.00 V, max = 1.00 V
Safety Limits :
	Do not start on E overload
Acquisition started on : 11/12/2025 20:20:55.800
Loaded Setting File :  C:\Users\User\Documents\EC-Lab\Data\Yatsuzuka\20251112_2-148_alpha_reproducibility\20251112_2-148_002_alpha_reproducibility_2_K1.mps
Saved on :
	File : 20251112_2-148_006_gamma_reproducibility_2_K2_01_CVA_C02.mpr
	Directory : C:\Users\User\Documents\EC-Lab\Data\Yatsuzuka\20251112_2-148_alpha_reproducibility\
	Host : 192.109.209.127
Device : SP-150e (SN .003883)
Address : 192.109.209.128
EC-Lab for windows v11.52 (software)
Internet server v11.52 (firmware)
Command interpretor v11.50 (firmware)
Electrode material :
Initial state :
Electrolyte :
Comments :
Electrode surface area : 0.001 cm2
Characteristic mass : 0.001 g
Equivalent Weight : 0.000 g/eq.
Density : 0.000 g/cm3
Volume (V) : 0.001 cm3
Cycle Definition : Charge/Discharge alternance
Ei (V)              0.350
vs.                 Ref
ti (h:m:s)          0:00:10.0000
dti (s)             0.0000
dE/dt               10.000
dE/dt unit          mV/s
E1 (V)              0.450
vs.                 Ref
t1 (h:m:s)          0:00:0.0000
dt1 (s)             0.1000
Step percent        50
N                   10
E range min (V)     -1.000
E range max (V)     1.000
I Range             Auto
I Range min         Unset
I Range max         Unset
I Range init        Unset
Bandwidth           5
E2 (V)              0.350
vs.                 Ref
t2 (h:m:s)          0:00:0.0000
dt2 (s)             0.1000
nc cycles           9
nr                  1
Reverse Scan        0
Ef (V)              0.000
vs.                 Eoc
tf (h:m:s)          0:00:0.0000
dtf (s)             0.1000

mode	ox/red	error	control changes	Ns changes	counter inc.	time/s	control/V	Ewe/V	<I>/mA	cycle number	(Q-Qo)/C	I Range	Ns	step time/s	P/W
2	0	0	0	0	0	0.000000000000000E+000	0.349989	0.348847	-74.8065	1	0.0000000E+000	9	0	0.000000000000000E+000	-0.026096
2	0	0	1	0	0	0.0775	0.350763	0.351342	-1.59217	1	0.000194232	9	0	0.05	-0.000559396
2	0	0	1	0	0	0.1774	0.351763	0.351645	-1.50704	1	0.00027973	9	0	0.000000000000000E+000	-0.000529942
2	0	0	1	0	0	0.2773	0.352761	0.351577	-1.70424	1	0.000364711	9	0	0.000000000000000E+000	-0.00059917
2	0	0	1	0	0	0.3771	0.35376	0.35312	-1.66748	1	0.000463649	9	0	0.000000000000000E+000	-0.000588821
2	0	0	1	0	0	0.4771	0.354758	0.354025	-1.73062	1	0.000555368	9	0	0.000000000000000E+000	-0.000612681
2	0	0	1	0	0	0.5769	0.355757	0.356207	-1.59071	1	0.000652635	9	0	0.000000000000000E+000	-0.000566623
2	0	0	1	0	0	0.6768	0.356756	0.356673	-1.40754	1	0.000745623	9	0	0.000000000000000E+000	-0.000502031
2	0	0	1	0	0	0.7767	0.357755	0.357537	-1.12732	1	0.000837299	9	0	0.000000000000000E+000	-0.000403057
2	0	0	1	0	0	0.8765	0.358754	0.358816	-1.02887	1	0.000941787	9	0	0.000000000000000E+000	-0.000369176
2	0	0	1	0	0	0.9765	0.359752	0.359855	-1.25564	1	0.0010094	9	0	0.000000000000000E+000	-0.000451849
2	0	0	1	0	0	1.0763	0.360751	0.361101	-0.851968	1	0.00114779	9	0	0.000000000000000E+000	-0.000307647
2	0	0	1	0	0	1.1762	0.36175	0.360935	-1.29444	1	0.00128061	9	0	0.000000000000000E+000	-0.000467209
2	0	0	1	0	0	1.2761	0.362749	0.361866	-1.07056	1	0.00138938	9	0	0.000000000000000E+000	-0.0003874
2	0	0	1	0	0	1.3759	0.363748	0.363141	-0.815644	1	0.00151019	9	0	0.000000000000000E+000	-0.000296193
2	0	0	1	0	0	1.4759	0.364747	0.364877	-0.690375	1	0.00162743	9	0	0.000000000000000E+000	-0.000251902
2	0	0	1	0	0	1.5757	0.365745	0.366679	-0.709744	1	0.00174292	9	0	0.000000000000000E+000	-0.000260249
2	0	0	1	0	0	1.6756	0.366744	0.366954	-0.606072	1	0.00184569	9	0	0.000000000000000E+000	-0.0002224
2	0	0	1	0	0	1.7755	0.367743	0.367608	-0.659124	1	0.0019578	9	0	0.000000000000000E+000	-0.000242299
2	0	0	1	0	0	1.8753	0.368742	0.36854	-0.934436	1	0.00205902	9	0	0.000000000000000E+000	-0.000344377
2	0	0	1	0	0	1.9753	0.369741	0.369812	-0.710883	1	0.00218017	9	0	0.000000000000000E+000	-0.000262893
2	0	0	1	0	0	2.0751	0.370739	0.370056	-0.461191	1	0.00231823	9	0	0.000000000000000E+000	-0.000170666
2	0	0	1	0	0	2.175	0.371738	0.371729	0.0279297	1	0.00245275	9	0	0.000000000000000E+000	1.03823e-05
2	0	0	1	0	0	2.2749	0.372737	0.372431	-0.124784	1	0.00258614	9	0	0.000000000000000E+000	-4.64734e-05
2	0	0	1	0	0	2.3748	0.373737	0.373522	-0.382641	1	0.00272541	9	0	0.000000000000000E+000	-0.000142925
2	0	0	1	0	0	2.4747	0.374735	0.374171	-0.578174	1	0.00284729	9	0	0.000000000000000E+000	-0.000216336
2	0	0	1	0	0	2.5745	0.375733	0.37545	-0.539266	1	0.00297096	9	0	0.000000000000000E+000	-0.000202468
2	0	0	1	0	0	2.6744	0.376731	0.376475	-0.422743	1	0.00309476	9	0	0.000000000000000E+000	-0.000159152
2	0	0	1	0	0	2.7743	0.377731	0.377994	-0.543355	1	0.00319955	9	0	0.000000000000000E+000	-0.000205385
2	0	0	1	0	0	2.8742	0.37873	0.378132	-0.256436	1	0.0032572	9	0	0.000000000000000E+000	-9.69667e-05
2	0	0	1	0	0	2.9741	0.379729	0.378433	0.268099	1	0.00337772	9	0	0.000000000000000E+000	0.000101457
2	0	0	1	0	0	3.0739	0.380728	0.379968	-0.0989586	1	0.00353022	9	0	0.000000000000000E+000	-3.76011e-05
2	0	0	1	0	0	3.1739	0.381726	0.381127	0.273572	1	0.00366767	9	0	0.000000000000000E+000	0.000104266
2	0	0	1	0	0	3.2737	0.382725	0.382949	0.238047	1	0.00391315	9	0	0.000000000000000E+000	9.11599e-05
2	0	0	1	0	0	3.3736	0.383724	0.384465	-0.438331	1	0.00396789	9	0	0.000000000000000E+000	-0.000168523
2	0	0	1	0	0	3.4735	0.384723	0.38472	-0.559726	1	0.00398079	9	0	0.000000000000000E+000	-0.000215338
2	0	0	1	0	0	3.5733	0.385722	0.385566	-0.256678	1	0.00405078	9	0	0.000000000000000E+000	-9.89665e-05
2	0	0	1	0	0	3.6733	0.38672	0.386151	1.71744	1	0.00425447	9	0	0.000000000000000E+000	0.000663192
2	0	0	1	0	0	3.7731	0.387719	0.387014	-0.541449	1	0.00441873	9	0	0.000000000000000E+000	-0.000209548
2	0	0	1	0	0	3.873	0.388718	0.388302	1.78009	1	0.00462146	9	0	0.000000000000000E+000	0.000691213
2	1	0	1	0	0	3.9729	0.389717	0.389478	0.553501	1	0.00503726	9	0	0.0999	0.000215577
2	0	0	1	0	0	4.0727	0.390716	0.390745	-0.265302	1	0.00525687	9	0	0.000000000000000E+000	-0.000103665
2	0	0	1	0	0	4.1727	0.391715	0.391428	-1.1926	1	0.00531531	9	0	0.000000000000000E+000	-0.000466818
2	1	0	1	0	0	4.2725	0.392713	0.393264	-0.717322	1	0.00538434	9	0	0.000000000000000E+000	-0.000282097
2	0	0	1	0	0	4.3724	0.393712	0.393377	0.0991709	1	0.0054935	9	0	0.000000000000000E+000	3.90116e-05
2	1	0	1	0	0	4.4723	0.394711	0.395596	3.19705	1	0.00579113	9	0	0.000000000000000E+000	0.00126474
2	1	0	1	0	0	4.5721	0.39571	0.394358	-0.0955632	1	0.00618947	9	0	0.0998	-3.76861e-05
2	0	0	1	0	0	4.6721	0.396709	0.396105	0.600232	1	0.00631637	9	0	0.000000000000000E+000	0.000237755
2	0	0	1	0	0	4.7719	0.397707	0.39837	0.695755	1	0.00646363	9	0	0.000000000000000E+000	0.000277168
2	0	0	1	0	0	4.8718	0.398706	0.398501	0.527843	1	0.00659784	9	0	0.000000000000000E+000	0.000210346
2	0	0	1	0	0	4.9717	0.399705	0.399995	0.41947	1	0.00672836	9	0	0.000000000000000E+000	0.000167786
2	0	0	1	0	0	5.0716	0.400705	0.400513	0.229362	1	0.0068685	9	0	0.000000000000000E+000	9.18623e-05
2	0	0	1	0	0	5.1715	0.401703	0.401239	0.350387	1	0.00700325	9	0	0.000000000000000E+000	0.000140589
2	1	0	1	0	0	5.2713	0.402702	0.402466	0.691758	1	0.00714956	9	0	0.000000000000000E+000	0.000278409
2	0	0	1	0	0	5.3712	0.403699	0.403205	0.761934	1	0.00729646	9	0	0.000000000000000E+000	0.000307216
2	0	0	1	0	0	5.4711	0.404699	0.403222	0.811924	1	0.00744533	9	0	0.000000000000000E+000	0.000327386
2	0	0	1	0	0	5.571	0.405698	0.404898	0.773995	1	0.00759759	9	0	0.000000000000000E+000	0.000313389
2	0	0	1	0	0	5.6709	0.406697	0.407237	0.503295	1	0.00774882	9	0	0.000000000000000E+000	0.00020496
2	1	0	1	0	0	5.7707	0.407696	0.407561	0.683795	1	0.00790727	9	0	0.000000000000000E+000	0.000278688
2	0	0	1	0	0	5.8707	0.408694	0.407662	0.726884	1	0.00806163	9	0	0.000000000000000E+000	0.000296323
2	1	0	1	0	0	5.9705	0.409693	0.409651	0.970657	1	0.00822117	9	0	0.000000000000000E+000	0.000397631
2	0	0	1	0	0	6.0704	0.410692	0.409819	0.822169	1	0.00837763	9	0	0.000000000000000E+000	0.000336941
2	0	0	1	0	0	6.1703	0.411691	0.412179	0.848048	1	0.0085272	9	0	0.000000000000000E+000	0.000349547
2	1	0	1	0	0	6.2701	0.41269	0.410235	0.873489	1	0.0086886	9	0	0.000000000000000E+000	0.000358336
2	0	0	1	0	0	6.3701	0.413688	0.41324	0.733048	1	0.00885748	9	0	0.000000000000000E+000	0.000302924
2	1	0	1	0	0	6.4599	0.414587	0.414267	0.52488	1	0.00901971	9	0	0.000000000000000E+000	0.000217441
2	0	0	1	0	0	6.4758	0.414762	0.413441	-60.2552	1	0.00875186	9	0	0.000000000000000E+000	-0.024912