File: ACS_Catal_2026/Figures_Na_K/main_figures/data/EC/20251112_2-148_alpha_reproducibility/20251112_2-148_002_alpha_reproducibility_2_Na1_01_CVA_C02.mpt
EC-Lab ASCII FILE
Nb header lines : 66

Cyclic Voltammetry Advanced

Run on channel : 2 (SN 69290)
User :
CE vs. WE compliance from -10 V to 10 V
Electrode connection : standard
Potential control : Ewe
Ewe ctrl range : min = -1.00 V, max = 1.00 V
Safety Limits :
	Do not start on E overload
Acquisition started on : 11/12/2025 13:57:42.969
Loaded Setting File :  C:\Users\User\Documents\EC-Lab\Data\Yatsuzuka\20251112_2-148_alpha_reproducibility\20251112_2-148_002_alpha_reproducibility_2_K1.mps
Saved on :
	File : 20251112_2-148_002_alpha_reproducibility_2_Na1_01_CVA_C02.mpr
	Directory : C:\Users\User\Documents\EC-Lab\Data\Yatsuzuka\20251112_2-148_alpha_reproducibility\
	Host : 192.109.209.127
Device : SP-150e (SN .003883)
Address : 192.109.209.128
EC-LAB for windows v11.52 (software)
Internet server v11.52 (firmware)
Command interpretor v11.50 (firmware)
Electrode material :
Initial state :
Electrolyte :
Comments :
Electrode surface area : 0.001 cm2
Characteristic mass : 0.001 g
Equivalent Weight : 0.000 g/eq.
Density : 0.000 g/cm3
Volume (V) : 0.001 cm3
Cycle Definition : Charge/Discharge alternance
Ei (V)              0.350
vs.                 Ref
ti (h:m:s)          0:00:10.0000
dti (s)             0.0000
dE/dt               10.000
dE/dt unit          mV/s
E1 (V)              0.450
vs.                 Ref
t1 (h:m:s)          0:00:0.0000
dt1 (s)             0.1000
Step percent        50
N                   10
E range min (V)     -1.000
E range max (V)     1.000
I Range             Auto
I Range min         Unset
I Range max         Unset
I Range init        Unset
Bandwidth           5
E2 (V)              0.350
vs.                 Ref
t2 (h:m:s)          0:00:0.0000
dt2 (s)             0.1000
nc cycles           9
nr                  1
Reverse Scan        0
Ef (V)              0.000
vs.                 Eoc
tf (h:m:s)          0:00:0.0000
dtf (s)             0.1000

mode	ox/red	error	control changes	Ns changes	counter inc.	time/s	control/V	Ewe/V	<I>/mA	cycle number	(Q-Qo)/C	I Range	Ns	step time/s	Pwe/W	Rwe/Ohm
2	0	0	1	0	0	0.000000000000000E+000	0.349989	0.349495	-0.00690457	1	0.0000000E+000	13	0	0.000000000000000E+000	-2.41312e-06	50618
2	1	0	1	0	0	1.9353	0.369341	0.368944	0.0384262	1	6.66703e-05	13	0	1.9078	1.41771e-05	9601.37
2	1	0	1	0	0	3.8331	0.388319	0.387929	0.0300325	1	0.00013069	13	0	3.8056	1.16505e-05	12917
2	1	0	1	0	0	5.7308	0.407296	0.406883	0.0240404	1	0.000191331	13	0	5.7033	9.78161e-06	16925
2	1	0	1	0	0	7.6285	0.426274	0.425836	0.0324153	1	0.000248806	13	0	7.601	1.38036e-05	13136.9
2	1	0	1	0	0	9.5263	0.445251	0.444785	0.0345199	1	0.000303729	13	0	9.4988	1.53539e-05	12884.9
2	0	0	1	0	0	11.4347	0.435662	0.435136	-0.0326457	1	0.000283994	13	0	1.3933	-1.42053e-05	13329
2	0	0	1	0	0	13.3325	0.416685	0.416153	-0.0254156	1	0.000232274	13	0	3.2911	-1.05768e-05	16373.9
2	0	0	1	0	0	15.2303	0.397707	0.397232	-0.0278091	1	0.000175712	13	0	5.1889	-1.10467e-05	14284.3
2	0	0	1	0	0	17.128	0.37873	0.378282	-0.0415682	1	0.000113972	13	0	7.0866	-1.57245e-05	9100.27
2	0	0	1	0	0	19.0257	0.359752	0.359257	-0.0328402	1	4.62012e-05	13	0	8.9843	-1.17981e-05	10939.6
2	1	0	1	0	1	20.8901	0.358903	0.358434	0.03487	2	3.51904e-05	13	0	0.844	1.24986e-05	10279.1
2	1	0	1	0	1	22.7879	0.377881	0.377446	0.0390215	2	9.90395e-05	13	0	2.7418	1.47285e-05	9672.78
2	1	0	1	0	1	24.6857	0.396858	0.396412	0.0239076	2	0.000160414	13	0	4.6396	9.47724e-06	16581
2	1	0	1	0	1	26.5834	0.415836	0.415378	0.0355857	2	0.000218736	13	0	6.5373	1.47815e-05	11672.6
2	1	0	1	0	1	28.4811	0.434813	0.434316	0.0277701	2	0.000274508	13	0	8.435	1.2061e-05	15639.7
2	0	0	1	0	1	30.3846	0.44615	0.445705	-0.0227706	2	0.000310159	13	0	0.3097	-1.0149e-05	19573.7
2	0	0	1	0	1	32.2823	0.427173	0.426706	-0.0311002	2	0.000261819	13	0	2.2074	-1.32706e-05	13720.4
2	0	0	1	0	1	34.1801	0.408195	0.407689	-0.0226986	2	0.000208022	13	0	4.1052	-9.25397e-06	17961
2	0	0	1	0	1	36.0779	0.389217	0.388759	-0.039411	2	0.000149523	13	0	6.003	-1.53214e-05	9864.22
2	0	0	1	0	1	37.9756	0.37024	0.369746	-0.0279414	2	8.55218e-05	13	0	7.9007	-1.03312e-05	13232.9
2	0	0	1	0	1	39.8733	0.351263	0.350798	-0.0450786	2	1.5016e-05	13	0	9.7984	-1.58135e-05	7781.92
2	1	0	1	0	0	41.7427	0.367443	0.366961	0.0262105	3	6.5339e-05	13	0	1.698	9.61825e-06	14000.5
2	1	0	1	0	0	43.6405	0.386421	0.385982	0.0395869	3	0.000128136	13	0	3.5958	1.52798e-05	9750.25
2	1	0	1	0	0	45.5382	0.405397	0.404959	0.0306476	3	0.000188005	13	0	5.4935	1.2411e-05	13213.4
2	1	0	1	0	0	47.436	0.424377	0.423902	0.0224865	3	0.000244957	13	0	7.3913	9.53209e-06	18851.4
2	1	0	1	0	0	49.3337	0.443353	0.442903	0.0282323	3	0.000299553	13	0	9.289	1.25042e-05	15687.8
2	0	0	1	0	0	51.2322	0.43766	0.437149	-0.0187812	3	0.000290031	13	0	1.1587	-8.21018e-06	23275.9
2	0	0	1	0	0	53.1299	0.418683	0.418142	-0.0305417	3	0.000239064	13	0	3.0564	-1.27708e-05	13690.9
2	0	0	1	0	0	55.0277	0.399705	0.39924	-0.0379098	3	0.00018338	13	0	4.9542	-1.51351e-05	10531.3
2	0	0	1	0	0	56.9255	0.380728	0.380264	-0.0307401	3	0.000122676	13	0	6.852	-1.16894e-05	12370.3
2	0	0	1	0	0	58.8232	0.36175	0.361296	-0.0297181	3	5.61396e-05	13	0	8.7497	-1.07371e-05	12157.4
2	1	0	1	0	1	60.6277	0.356307	0.355877	0.0268614	4	2.97173e-05	13	0	0.5494	9.55935e-06	13248.6
2	1	0	1	0	1	62.5254	0.375284	0.374848	0.0261513	4	9.33851e-05	13	0	2.4471	9.80276e-06	14333.8
2	1	0	1	0	1	64.4231	0.394262	0.393821	0.0308643	4	0.00015482	13	0	4.3448	1.2155e-05	12759.8
2	1	0	1	0	1	66.3209	0.413239	0.41278	0.0359855	4	0.000213243	13	0	6.2426	1.48541e-05	11470.7
2	1	0	1	0	1	68.2187	0.432217	0.431762	0.0346642	4	0.000269122	13	0	8.1404	1.49667e-05	12455.6
2	1	0	1	0	1	70.0372	0.449596	0.449126	-0.0119861	4	0.000319206	13	0	0.000000000000000E+000	-5.38326e-06	37470.7
2	0	0	1	0	1	71.9799	0.430169	0.429665	-0.0219641	4	0.000271868	13	0	1.9427	-9.43721e-06	19562.1
2	0	0	1	0	1	73.8777	0.411191	0.410668	-0.0222445	4	0.00021905	13	0	3.8405	-9.13511e-06	18461.6
2	0	0	1	0	1	75.7754	0.392214	0.3917	-0.0319733	4	0.000161624	13	0	5.7382	-1.25239e-05	12250.9
2	0	0	1	0	1	77.6731	0.373237	0.372747	-0.0417492	4	9.89144e-05	13	0	7.6359	-1.55619e-05	8928.23
2	0	0	1	0	1	79.5709	0.354259	0.353784	-0.0444154	4	2.99694e-05	13	0	9.5337	-1.57135e-05	7965.36
2	1	0	1	0	0	81.4353	0.364397	0.363964	0.0396545	5	5.8797e-05	13	0	1.3434	1.44328e-05	9178.37
2	1	0	1	0	0	83.3331	0.383374	0.38287	0.0338428	5	0.00012172	13	0	3.2412	1.29574e-05	11313.2
2	1	0	1	0	0	85.2308	0.402353	0.40191	0.0236215	5	0.0001818	13	0	5.1389	9.49372e-06	17014.5
2	1	0	1	0	0	87.1285	0.421329	0.420898	0.02993	5	0.000238924	13	0	7.0366	1.25975e-05	14062.7
2	1	0	1	0	0	89.0263	0.440307	0.439861	0.0356875	5	0.000293687	13	0	8.9344	1.56976e-05	12325.3
2	0	0	1	0	0	90.9297	0.440657	0.440138	-0.0194663	5	0.000300167	13	0	0.8939	-8.56787e-06	22610.2
2	0	0	1	0	0	92.8275	0.421679	0.421165	-0.0299312	5	0.000250204	13	0	2.7917	-1.2606e-05	14071.1
2	0	0	1	0	0	94.7253	0.402701	0.402189	-0.0374011	5	0.000195469	13	0	4.6895	-1.50423e-05	10753.4
2	0	0	1	0	0	96.623	0.383724	0.383258	-0.0382676	5	0.000135842	13	0	6.5872	-1.46664e-05	10015.2
2	0	0	1	0	0	98.5207	0.364747	0.364259	-0.0348664	5	7.06605e-05	13	0	8.4849	-1.27004e-05	10447.3
2	1	0	1	0	1	100.385	0.353909	0.353484	0.0301588	6	2.56586e-05	13	0	0.2946	1.06607e-05	11720.8
2	1	0	1	0	1	102.283	0.372887	0.372417	0.0266117	6	8.90734e-05	13	0	2.1924	9.91065e-06	13994.5
2	1	0	1	0	1	104.181	0.391864	0.391428	0.0239543	6	0.000150696	13	0	4.0902	9.37641e-06	16340.6
2	1	0	1	0	1	106.078	0.410843	0.410365	0.0257463	6	0.000209273	13	0	5.9879	1.05654e-05	15938.8
2	1	0	1	0	1	107.976	0.429819	0.429378	0.0313583	6	0.000265257	13	0	7.8856	1.34645e-05	13692.6
2	1	0	1	0	1	109.874	0.448797	0.44835	0.0347355	6	0.000319041	13	0	9.7834	1.55737e-05	12907.6
2	0	0	1	0	1	111.777	0.432167	0.431683	-0.0208329	6	0.000280144	13	0	1.7429	-8.99321e-06	20721.2
2	0	0	1	0	1	113.675	0.413189	0.412662	-0.0291943	6	0.000227947	13	0	3.6407	-1.20474e-05	14135
2	0	0	1	0	1	115.573	0.394212	0.393768	-0.0380638	6	0.000171226	13	0	5.5385	-1.49883e-05	10345
2	0	0	1	0	1	117.471	0.375234	0.374743	-0.0391047	6	0.000109369	13	0	7.4362	-1.46542e-05	9583.07
2	0	0	1	0	1	119.368	0.356257	0.355828	-0.0310173	6	4.14328e-05	13	0	9.3339	-1.10368e-05	11471.9
2	1	0	1	0	0	121.233	0.362399	0.361967	0.0259272	7	5.59773e-05	13	0	1.1436	9.38481e-06	13960.9
2	1	0	1	0	0	123.13	0.381377	0.380874	0.0317975	7	0.000118978	13	0	3.0414	1.21108e-05	11978.1
2	1	0	1	0	0	125.028	0.400353	0.399921	0.0382246	7	0.000179167	13	0	4.9391	1.52868e-05	10462.4
2	1	0	1	0	0	126.926	0.419333	0.418848	0.0335945	7	0.000236422	13	0	6.8369	1.4071e-05	12467.8
2	1	0	1	0	0	128.824	0.438309	0.437859	0.0273774	7	0.000291275	13	0	8.7346	1.19874e-05	15993.5
2	0	0	1	0	0	130.727	0.442653	0.442164	-0.0288738	7	0.000308219	13	0	0.6942	-1.2767e-05	15313.7
2	0	0	1	0	0	132.625	0.423677	0.423198	-0.0345445	7	0.000258932	13	0	2.5919	-1.46191e-05	12250.8
2	0	0	1	0	0	134.523	0.404699	0.404211	-0.0288146	7	0.000204818	13	0	4.4897	-1.16472e-05	14028
2	0	0	1	0	0	136.42	0.385722	0.385233	-0.0351011	7	0.000145944	13	0	6.3875	-1.35221e-05	10974.9
2	0	0	1	0	0	138.318	0.366744	0.366293	-0.0338085	7	8.16432e-05	13	0	8.2852	-1.23838e-05	10834.3
2	1	0	1	0	1	140.153	0.351612	0.351158	0.0371275	8	2.23982e-05	12	0	0.0649	1.30376e-05	9458.18
2	1	0	1	0	1	142.08	0.370889	0.370417	0.0374011	8	8.64223e-05	13	0	1.9926	1.3854e-05	9903.92
2	1	0	1	0	1	143.978	0.389867	0.389472	0.0269317	8	0.000148157	13	0	3.8904	1.04891e-05	14461.5
2	1	0	1	0	1	145.876	0.408844	0.408382	0.0347652	8	0.000206868	13	0	5.7881	1.41974e-05	11746.9
2	1	0	1	0	1	147.773	0.427822	0.427406	0.0250574	8	0.000262951	13	0	7.6858	1.07097e-05	17057.1
2	1	0	1	0	1	149.671	0.446799	0.446355	0.0308188	8	0.000316813	13	0	9.5836	1.37561e-05	14483.2
2	0	0	1	0	1	151.575	0.434163	0.433651	-0.030791	8	0.000288695	13	0	1.5432	-1.33525e-05	14083.7
2	0	0	1	0	1	153.472	0.415187	0.414651	-0.0241141	8	0.000237127	13	0	3.4409	-9.99896e-06	17195.4
2	0	0	1	0	1	155.37	0.396209	0.395708	-0.0366682	8	0.000181063	13	0	5.3387	-1.45099e-05	10791.6
2	0	0	1	0	1	157.268	0.377232	0.376743	-0.0275288	8	0.000120005	13	0	7.2365	-1.03713e-05	13685.4
2	0	0	1	0	1	159.166	0.358254	0.357788	-0.0447382	8	5.29984e-05	13	0	9.1342	-1.60068e-05	7997.37
2	1	0	1	0	0	161.03	0.360402	0.359946	0.0406038	9	5.32662e-05	13	0	0.9438	1.46152e-05	8864.85
2	1	0	1	0	0	162.928	0.379379	0.378904	0.035167	9	0.000116349	13	0	2.8416	1.33249e-05	10774.4
2	1	0	1	0	0	164.826	0.398357	0.397906	0.0301938	9	0.000176692	13	0	4.7394	1.20143e-05	13178.4
2	1	0	1	0	0	166.723	0.417334	0.416881	0.0258286	9	0.000234055	13	0	6.6371	1.07674e-05	16140.3
2	1	0	1	0	0	168.621	0.436312	0.435848	0.0233157	9	0.000289002	13	0	8.5348	1.01621e-05	18693.3
2	0	0	1	0	0	170.525	0.444653	0.444142	-0.0291297	9	0.000316399	13	0	0.4944	-1.29377e-05	15247
2	0	0	1	0	0	172.422	0.425674	0.425193	-0.0344037	9	0.00026787	13	0	2.3921	-1.46282e-05	12358.9
2	0	0	1	0	0	174.32	0.406697	0.406209	-0.036628	9	0.000214355	13	0	4.2899	-1.48786e-05	11090.1
2	0	0	1	0	0	176.218	0.387719	0.387248	-0.0389825	9	0.000156156	13	0	6.1877	-1.50959e-05	9933.91
2	0	0	1	0	0	178.116	0.368743	0.368271	-0.0411892	9	9.26684e-05	13	0	8.0854	-1.51688e-05	8940.95
2	0	0	1	0	0	179.987	0.349989	0.349553	-0.0316719	9	2.38414e-05	13	0	9.9572	-1.1071e-05	11036.7
2	1	0	1	0	1	181.878	0.368892	0.368457	0.0405461	10	8.36129e-05	13	0	1.7928	1.49395e-05	9087.36
2	1	0	1	0	1	183.775	0.387869	0.387402	0.0355903	10	0.000145514	13	0	3.6906	1.37877e-05	10885.1
2	1	0	1	0	1	185.673	0.406847	0.40641	0.0276374	10	0.000204467	13	0	5.5884	1.12321e-05	14705.1
2	1	0	1	0	1	187.571	0.425824	0.425398	0.0215084	10	0.000260616	13	0	7.4861	9.14962e-06	19778.2
2	1	0	1	0	1	189.469	0.444802	0.444321	0.0228367	10	0.000314569	13	0	9.3838	1.01468e-05	19456.4
2	0	0	1	0	1	191.372	0.436162	0.435653	-0.0240599	10	0.000297096	13	0	1.3434	-1.04818e-05	18107
2	0	0	1	0	1	193.27	0.417184	0.416673	-0.0210189	10	0.000246132	13	0	3.2411	-8.75801e-06	19823.8
2	0	0	1	0	1	195.168	0.398207	0.397728	-0.0271861	10	0.000190662	13	0	5.1389	-1.08127e-05	14629.8
2	0	0	1	0	1	197.065	0.379229	0.37877	-0.038035	10	0.000130299	13	0	7.0367	-1.44065e-05	9958.45
2	0	0	1	0	1	198.963	0.360253	0.359816	-0.0427806	10	6.41393e-05	13	0	8.9344	-1.53931e-05	8410.72
2	0	0	0	0	1	199.986	0.349989	0.349629	-0.0331836	10	2.58653e-05	13	0	9.9572	-1.1602e-05	10536.2