File: ACS_Catal_2026/Figures_Na_K/main_figures/data/EC/20251112_2-148_alpha_reproducibility/20251112_2-148_005_gamma_reproducibility_K1_03_CVA_C01.mpt
EC-Lab ASCII FILE
Nb header lines : 66

Cyclic Voltammetry Advanced

Run on channel : 1 (SN 69187)
User :
CE vs. WE compliance from -10 V to 10 V
Electrode connection : standard
Potential control : Ewe
Ewe ctrl range : min = -1.00 V, max = 1.00 V
Safety Limits :
	Do not start on E overload
Acquisition started on : 11/12/2025 19:09:25.688
Loaded Setting File :  C:\Users\User\Documents\EC-Lab\Data\Yatsuzuka\20251030_2-147_gamma_reproducibility\20251030_2-147_001_gamma1_K_1.mps
Saved on :
	File : 20251112_2-148_005_gamma_reproducibility_K1_03_CVA_C01.mpr
	Directory : C:\Users\User\Documents\EC-Lab\Data\Yatsuzuka\20251112_2-148_alpha_reproducibility\
	Host : 192.109.209.127
Device : SP-150e (SN .003883)
Address : 192.109.209.128
EC-Lab for windows v11.52 (software)
Internet server v11.52 (firmware)
Command interpretor v11.50 (firmware)
Electrode material :
Initial state :
Electrolyte :
Comments :
Electrode surface area : 0.001 cm2
Characteristic mass : 0.001 g
Equivalent Weight : 0.000 g/eq.
Density : 0.000 g/cm3
Volume (V) : 0.001 cm3
Cycle Definition : Charge/Discharge alternance
Ei (V)              0.450
vs.                 Ref
ti (h:m:s)          0:00:10.0000
dti (s)             0.0000
dE/dt               5.000
dE/dt unit          mV/s
E1 (V)              0.700
vs.                 Ref
t1 (h:m:s)          0:00:0.0000
dt1 (s)             0.1000
Step percent        50
N                   10
E range min (V)     -1.000
E range max (V)     1.000
I Range             10 mA
I Range min         Unset
I Range max         Unset
I Range init        Unset
Bandwidth           5
E2 (V)              0.450
vs.                 Ref
t2 (h:m:s)          0:00:0.0000
dt2 (s)             0.1000
nc cycles           14
nr                  1
Reverse Scan        0
Ef (V)              0.000
vs.                 Eoc
tf (h:m:s)          0:00:0.0000
dtf (s)             0.1000

mode	ox/red	error	control changes	Ns changes	counter inc.	time/s	control/V	Ewe/V	<I>/mA	cycle number	(Q-Qo)/C	I Range	Ns	step time/s	P/W
2	0	0	0	0	0	232.468	0.449961	0.449697	-0.00247913	1	0.0000000E+000	11	0	0.000000000000000E+000	-1.11486e-06
2	0	0	1	0	0	245.605	0.515645	0.515411	0.00208129	1	2.81415e-05	11	0	13.0818	1.07272e-06
2	1	0	1	0	0	258.787	0.581553	0.581334	0.00450657	1	7.01046e-05	11	0	26.2635	2.61982e-06
2	1	0	1	0	0	271.968	0.647462	0.647299	0.02793	1	0.000230367	11	0	39.4452	1.8079e-05
2	1	0	1	0	0	284.933	0.687706	0.68746	0.0865051	1	0.00124071	11	0	52.4095	5.94688e-05
2	1	0	1	0	0	298.114	0.621798	0.621555	0.00705303	1	0.00166159	11	0	65.5912	4.38384e-06
2	1	0	1	0	0	311.296	0.555888	0.555669	0.000875215	1	0.00169463	11	0	78.773	4.86329e-07
2	1	0	1	0	0	324.478	0.48998	0.489791	0.000199563	1	0.00169754	11	0	0.0999	9.77443e-08
2	1	0	1	0	1	337.517	0.475251	0.474979	0.00139484	2	0.00170452	11	0	5.0477	6.62519e-07
2	1	0	0	0	1	350.699	0.541159	0.540918	0.00162696	2	0.0017255	11	0	18.2294	8.80055e-07
2	1	0	1	0	1	363.88	0.607068	0.606852	0.00467623	2	0.00176062	11	0	31.4111	2.83778e-06
2	1	0	1	0	1	377.062	0.672977	0.672735	0.0452658	2	0.00199374	11	0	44.5929	3.04519e-05
2	1	0	1	0	1	390.016	0.662242	0.662019	0.0278822	2	0.00286189	11	0	57.5471	1.84586e-05
2	1	0	1	0	1	403.198	0.596332	0.596147	0.00220756	2	0.00299242	11	0	70.7289	1.31603e-06
2	1	0	0	0	1	416.38	0.530424	0.530233	0.000245506	2	0.00300172	11	0	83.9106	1.30176e-07
2	0	0	1	0	1	429.562	0.464516	0.464282	-0.000130906	2	0.00300176	11	0	0.0998	-6.07773e-08
2	1	0	1	0	0	442.601	0.500715	0.500498	0.00146093	3	0.00301656	11	0	10.086	7.3119e-07
2	1	0	0	0	0	455.783	0.566624	0.566393	0.00178394	3	0.00303809	11	0	23.2678	1.01041e-06
2	1	0	1	0	0	468.964	0.632533	0.632319	0.00945472	3	0.00309362	11	0	36.4495	5.9784e-06
2	1	0	1	0	0	482.146	0.698441	0.698228	0.102754	3	0.0036163	11	0	49.6312	7.17454e-05
2	1	0	1	0	0	495.1	0.636777	0.636598	0.00948794	3	0.00417085	11	0	62.5855	6.04e-06
2	1	0	1	0	0	508.282	0.570868	0.57066	0.000828409	3	0.00421375	11	0	75.7672	4.7274e-07
2	0	0	1	0	0	521.464	0.50496	0.504693	4.57937e-05	3	0.0042173	11	0	0.0998	2.31118e-08
2	1	0	1	0	1	534.503	0.460272	0.460021	0.00149388	4	0.00421988	11	0	1.9973	6.87217e-07
2	1	0	1	0	1	547.685	0.52618	0.52595	0.0014641	4	0.00423991	11	0	15.179	7.70045e-07
2	1	0	1	0	1	560.866	0.592089	0.591824	0.00273189	4	0.00426516	11	0	28.3607	1.6168e-06
2	1	0	0	0	1	574.048	0.657997	0.657776	0.0230759	4	0.00438148	11	0	41.5424	1.51788e-05
2	1	0	1	0	1	587.002	0.677221	0.676985	0.046896	4	0.00518224	11	0	54.4967	3.17479e-05
2	1	0	0	0	1	600.184	0.611312	0.611088	0.00316569	4	0.00539987	11	0	67.6784	1.93451e-06
2	0	0	1	0	1	613.366	0.545404	0.545169	0.000311334	4	0.00541345	11	0	80.8601	1.6973e-07
2	1	0	1	0	1	626.547	0.479494	0.479274	0.000135706	4	0.0054137	11	0	0.000000000000000E+000	6.50403e-08
2	0	0	0	0	0	639.587	0.485736	0.485514	0.00148943	5	0.00542321	11	0	7.0902	7.2314e-07
2	1	0	1	0	0	652.768	0.551645	0.551434	0.00160261	5	0.00544292	11	0	20.2719	8.83734e-07
2	1	0	1	0	0	665.95	0.617554	0.617256	0.00489996	5	0.0054776	11	0	33.4537	3.02453e-06
2	1	0	1	0	0	679.132	0.683461	0.68327	0.0612111	5	0.0057738	11	0	46.6353	4.18237e-05
2	1	0	1	0	0	692.086	0.651756	0.651568	0.0177912	5	0.0065484	11	0	59.5896	1.15921e-05
2	1	0	1	0	0	705.268	0.585848	0.585641	0.0010526	5	0.00662385	11	0	72.7713	6.16445e-07
2	1	0	1	0	0	718.449	0.519939	0.519686	0.000241688	5	0.00662877	11	0	0.0999	1.25602e-07
2	1	0	1	0	0	731.631	0.45403	0.453818	4.30328e-05	5	0.00662772	11	0	0.1997	1.95291e-08
2	0	0	1	0	1	744.67	0.511201	0.510931	0.00114737	6	0.00664481	11	0	12.1831	5.86228e-07
2	1	0	1	0	1	757.852	0.57711	0.576863	0.00184122	6	0.0066657	11	0	25.3649	1.06213e-06
2	1	0	1	0	1	771.034	0.643018	0.642815	0.0127917	6	0.00673201	11	0	38.5466	8.22266e-06
2	1	0	1	0	1	783.988	0.692199	0.691976	0.0875807	6	0.00744175	11	0	51.5009	6.06038e-05
2	1	0	1	0	1	797.17	0.626291	0.62607	0.0058164	6	0.00786628	11	0	64.6826	3.64147e-06
2	1	0	1	0	1	810.351	0.560382	0.560177	0.000603101	6	0.00788983	11	0	77.8643	3.37843e-07
2	1	0	0	0	1	823.533	0.494474	0.494238	0.000202803	6	0.00789182	11	0	0.000000000000000E+000	1.00233e-07
2	0	0	1	0	0	836.572	0.470756	0.47054	0.00118805	7	0.00789681	11	0	4.0943	5.59025e-07
2	1	0	1	0	0	849.754	0.536666	0.536426	0.00141384	7	0.00791602	11	0	17.2761	7.58421e-07
2	1	0	0	0	0	862.936	0.602574	0.602373	0.00295129	7	0.00794188	11	0	30.4578	1.77778e-06
2	1	0	1	0	0	876.117	0.668483	0.668259	0.0385208	7	0.00811638	11	0	43.6395	2.57419e-05
2	1	0	0	0	0	889.072	0.666735	0.66654	0.0374411	7	0.00906337	11	0	56.5938	2.4956e-05
2	1	0	1	0	0	902.253	0.600827	0.600611	0.00180678	7	0.00922129	11	0	69.7755	1.08517e-06
2	1	0	1	0	0	915.435	0.534918	0.53469	0.000353561	7	0.00922903	11	0	0.0998	1.89045e-07
2	0	0	1	0	0	928.617	0.46901	0.468786	4.60134e-05	7	0.00922878	11	0	0.0998	2.15704e-08
2	1	0	1	0	1	941.656	0.496222	0.49594	0.00129496	8	0.00924173	11	0	9.1873	6.42225e-07
2	1	0	1	0	1	954.838	0.56213	0.561941	0.00147868	8	0.00926155	11	0	22.369	8.30932e-07
2	1	0	1	0	1	968.019	0.628039	0.627798	0.00691098	8	0.00930284	11	0	35.5507	4.3387e-06
2	1	0	1	0	1	981.201	0.693948	0.693707	0.106803	8	0.00981949	11	0	48.7325	7.40902e-05
2	1	0	1	0	1	994.155	0.641271	0.641058	0.0131621	8	0.0106105	11	0	61.6867	8.43767e-06
2	1	0	1	0	1	1007.34	0.575361	0.575117	0.000773897	8	0.0106597	11	0	74.8685	4.45081e-07
2	0	0	1	0	1	1020.52	0.509453	0.509184	0.000165106	8	0.0106624	11	0	0.000000000000000E+000	8.40693e-08
2	1	0	1	0	0	1033.56	0.455778	0.455575	0.00132173	9	0.0106631	11	0	1.0985	6.02147e-07
2	1	0	0	0	0	1046.74	0.521686	0.521484	0.00133754	9	0.0106818	11	0	14.2802	6.97505e-07
2	1	0	1	0	0	1059.92	0.587594	0.587354	0.00209292	9	0.0107035	11	0	27.4619	1.22928e-06
2	1	0	1	0	0	1073.1	0.653504	0.653287	0.0230563	9	0.010804	11	0	40.6437	1.50624e-05
2	1	0	1	0	0	1086.06	0.681715	0.68154	0.077193	9	0.0118325	11	0	53.5979	5.26101e-05
2	1	0	1	0	0	1099.24	0.615806	0.615561	0.00358806	9	0.0121863	11	0	66.7797	2.20867e-06
2	1	0	0	0	0	1112.42	0.549897	0.549683	0.000284602	9	0.0122005	11	0	79.9614	1.56441e-07
2	0	0	1	0	0	1125.6	0.483989	0.483749	7.89746e-05	9	0.0122013	11	0	0.000000000000000E+000	3.82038e-08
2	1	0	1	0	1	1138.64	0.481243	0.480976	0.00121038	10	0.0122096	11	0	6.1915	5.82163e-07
2	1	0	0	0	1	1151.82	0.547151	0.546985	0.00150239	10	0.0122288	11	0	19.3732	8.21783e-07
2	1	0	1	0	1	1165.01	0.61306	0.612831	0.00386078	10	0.0122578	11	0	32.5549	2.366e-06
2	1	0	1	0	1	1178.19	0.678968	0.678764	0.073411	10	0.0125821	11	0	45.7366	4.98287e-05
2	1	0	1	0	1	1191.14	0.65625	0.656031	0.0313805	10	0.0137399	11	0	58.6909	2.05866e-05
2	1	0	1	0	1	1204.32	0.590341	0.590131	0.00124948	10	0.0138579	11	0	71.8726	7.37358e-07
2	1	0	1	0	1	1217.5	0.524433	0.524181	0.000220929	10	0.0138635	11	0	0.2996	1.15807e-07
2	1	0	1	0	1	1230.69	0.458523	0.458278	0.000194536	10	0.0138641	11	0	0.000000000000000E+000	8.91514e-08
2	1	0	1	0	0	1243.73	0.506707	0.506446	0.00142847	11	0.0138805	11	0	11.339	7.23442e-07
2	1	0	1	0	0	1256.91	0.572616	0.572409	0.00157555	11	0.0139008	11	0	24.5207	9.0186e-07
2	1	0	0	0	0	1270.09	0.638524	0.638265	0.0124863	11	0.0139593	11	0	37.7024	7.96959e-06
2	1	0	1	0	0	1283.04	0.696693	0.696461	0.147237	11	0.0148677	11	0	50.6567	0.000102545
2	1	0	0	0	0	1296.22	0.630785	0.630532	0.00892713	11	0.0156219	11	0	63.8384	5.62884e-06
2	0	0	1	0	0	1309.41	0.564877	0.564643	0.000435915	11	0.0156527	11	0	77.0201	2.46137e-07
2	1	0	1	0	0	1322.59	0.498968	0.498699	8.48194e-05	11	0.0156546	11	0	0.000000000000000E+000	4.22993e-08
2	1	0	0	0	1	1335.63	0.466263	0.466028	0.00140778	12	0.0156589	11	0	3.2502	6.56065e-07
2	0	0	1	0	1	1348.81	0.532172	0.531992	0.00146811	12	0.0156778	11	0	16.4319	7.81024e-07
2	1	0	1	0	1	1361.99	0.598081	0.597845	0.00250153	12	0.0157012	11	0	29.6137	1.49553e-06
2	1	0	1	0	1	1375.17	0.663989	0.663769	0.0467005	12	0.0158888	11	0	42.7953	3.09984e-05
2	1	0	1	0	1	1388.13	0.671229	0.671075	0.0688168	12	0.017282	11	0	55.7496	4.61812e-05
2	1	0	1	0	1	1401.31	0.605321	0.605101	0.00222055	12	0.0175667	11	0	68.9313	1.34366e-06
2	1	0	1	0	1	1414.49	0.539411	0.539132	0.000343629	12	0.0175755	11	0	82.1131	1.85262e-07
2	1	0	1	0	1	1427.67	0.473503	0.473255	-9.97845e-06	12	0.0175764	11	0	0.000000000000000E+000	-4.72235e-09
2	0	0	1	0	0	1440.71	0.491728	0.491478	0.00120892	13	0.0175882	11	0	8.2885	5.94157e-07
2	1	0	1	0	0	1453.89	0.557637	0.557408	0.00146396	13	0.0176074	11	0	21.4703	8.16024e-07
2	1	0	1	0	0	1467.07	0.623545	0.623358	0.00636293	13	0.0176437	11	0	34.652	3.96639e-06
2	1	0	1	0	0	1480.26	0.689454	0.689246	0.134155	13	0.0182677	11	0	47.8337	9.24657e-05
2	1	0	1	0	0	1493.21	0.645764	0.645559	0.0240529	13	0.0195541	11	0	60.788	1.55276e-05
2	1	0	1	0	0	1506.39	0.579856	0.579622	0.00091925	13	0.0196341	11	0	73.9697	5.32818e-07
2	1	0	0	0	0	1519.57	0.513947	0.513692	0.000284602	13	0.0196378	11	0	0.000000000000000E+000	1.46198e-07
2	1	0	1	0	1	1532.61	0.451284	0.451075	0.00124944	14	0.0196379	11	0	0.1997	5.63593e-07
2	1	0	1	0	1	1545.8	0.517193	0.516975	0.00126735	14	0.0196568	11	0	13.3815	6.55188e-07
2	1	0	0	0	1	1558.98	0.583101	0.582819	0.00171451	14	0.0196776	11	0	26.5632	9.99247e-07
2	1	0	1	0	1	1572.16	0.64901	0.648846	0.0259484	14	0.0197778	11	0	39.7449	1.68365e-05
2	1	0	0	0	1	1585.11	0.686208	0.685996	0.133187	14	0.0211854	11	0	52.6992	9.13654e-05
2	1	0	1	0	1	1598.29	0.6203	0.620038	0.00563395	14	0.0218181	11	0	65.8809	3.49326e-06
2	1	0	1	0	1	1611.48	0.554391	0.55411	0.000315128	14	0.0218367	11	0	79.0626	1.74615e-07
2	1	0	1	0	1	1624.66	0.488483	0.488245	0.000239191	14	0.0218382	11	0	0.0998	1.16784e-07
2	0	0	1	0	0	1637.7	0.476749	0.476535	0.00130823	15	0.0218458	11	0	5.2927	6.23416e-07
2	1	0	1	0	0	1650.88	0.542657	0.542407	0.00148737	15	0.021865	11	0	18.4744	8.06759e-07
2	1	0	1	0	0	1664.06	0.608565	0.608354	0.00354399	15	0.0218915	11	0	31.6561	2.156e-06
2	1	0	1	0	0	1677.24	0.674475	0.67422	0.0892814	15	0.0222594	11	0	44.8379	6.01953e-05
2	1	0	1	0	0	1690.2	0.660744	0.660509	0.0564691	15	0.0239673	11	0	57.7921	3.72983e-05
2	1	0	1	0	0	1703.38	0.594834	0.594588	0.00153471	15	0.0241745	11	0	70.9739	9.12519e-07
2	1	0	1	0	0	1716.56	0.528926	0.528667	0.00031928	15	0.0241807	11	0	84.1556	1.68793e-07
2	1	0	1	0	0	1729.74	0.463018	0.462786	0.000211174	15	0.0241816	11	0	0.000000000000000E+000	9.77285e-08
2	1	0	1	0	0	1732.34	0.450011	0.449773	8.03834e-05	15	0.0241814	11	0	0.3017	3.61543e-08