File: ACS_Catal_2026/Figures_Na_K/main_figures/data/EC/20251112_2-148_alpha_reproducibility/20251112_2-148_001_alpha_reproducibility_1_K2_03_CVA_C01.mpt
EC-Lab ASCII FILE
Nb header lines : 66

Cyclic Voltammetry Advanced

Run on channel : 1 (SN 69187)
User :
CE vs. WE compliance from -10 V to 10 V
Electrode connection : standard
Potential control : Ewe
Ewe ctrl range : min = -1.00 V, max = 1.00 V
Safety Limits :
	Do not start on E overload
Acquisition started on : 11/12/2025 14:40:36.984
Loaded Setting File :  C:\Users\User\Documents\EC-Lab\Data\Yatsuzuka\20251030_2-147_gamma_reproducibility\20251030_2-147_001_gamma1_K_1.mps
Saved on :
	File : 20251112_2-148_001_alpha_reproducibility_1_K2_03_CVA_C01.mpr
	Directory : C:\Users\User\Documents\EC-Lab\Data\Yatsuzuka\20251112_2-148_alpha_reproducibility\
	Host : 192.109.209.127
Device : SP-150e (SN .003883)
Address : 192.109.209.128
EC-LAB for windows v11.52 (software)
Internet server v11.52 (firmware)
Command interpretor v11.50 (firmware)
Electrode material :
Initial state :
Electrolyte :
Comments :
Electrode surface area : 0.001 cm2
Characteristic mass : 0.001 g
Equivalent Weight : 0.000 g/eq.
Density : 0.000 g/cm3
Volume (V) : 0.001 cm3
Cycle Definition : Charge/Discharge alternance
Ei (V)              0.450
vs.                 Ref
ti (h:m:s)          0:00:10.0000
dti (s)             0.0000
dE/dt               5.000
dE/dt unit          mV/s
E1 (V)              0.700
vs.                 Ref
t1 (h:m:s)          0:00:0.0000
dt1 (s)             0.1000
Step percent        50
N                   10
E range min (V)     -1.000
E range max (V)     1.000
I Range             10 mA
I Range min         Unset
I Range max         Unset
I Range init        Unset
Bandwidth           5
E2 (V)              0.450
vs.                 Ref
t2 (h:m:s)          0:00:0.0000
dt2 (s)             0.1000
nc cycles           14
nr                  1
Reverse Scan        0
Ef (V)              0.000
vs.                 Eoc
tf (h:m:s)          0:00:0.0000
dtf (s)             0.1000

mode	ox/red	error	control changes	Ns changes	counter inc.	time/s	control/V	Ewe/V	<I>/mA	cycle number	(Q-Qo)/C	I Range	Ns	step time/s	Pwe/W	Rwe/Ohm
2	0	0	0	0	0	232.318	0.449961	0.449697	-0.0061051	1	0.0000000E+000	11	0	0.000000000000000E+000	-2.74544e-06	73659.3
2	1	0	1	0	0	246.254	0.519639	0.519435	0.0126468	1	0.000173864	11	0	13.8807	6.56916e-06	41072.6
2	1	0	0	0	0	260.235	0.589542	0.589306	0.0249041	1	0.000394511	11	0	27.8613	1.46761e-05	23663
2	1	0	1	0	0	274.215	0.659445	0.659208	0.404877	1	0.0021981	11	0	41.8419	0.000266898	1628.17
2	1	0	1	0	0	287.978	0.671728	0.671518	0.542315	1	0.0147036	11	0	55.6051	0.000364174	1238.24
2	1	0	0	0	0	301.959	0.601825	0.601592	0.0140642	1	0.0170409	11	0	69.5857	8.46091e-06	42774.6
2	0	0	1	0	0	315.94	0.531922	0.531703	-0.00891256	1	0.0170029	11	0	9.8863	-4.73884e-06	59657.8
2	0	0	0	0	0	329.92	0.462019	0.461778	-0.011627	1	0.0168584	11	0	23.8669	-5.36907e-06	39716.2
2	1	0	1	0	1	343.758	0.507206	0.506946	0.0113306	2	0.016961	11	0	11.3842	5.74401e-06	44741.3
2	1	0	1	0	1	357.739	0.57711	0.576851	0.0176595	2	0.0171439	11	0	25.3649	1.01869e-05	32665.2
2	1	0	1	0	1	371.719	0.647013	0.646794	0.235034	2	0.018182	11	0	39.3455	0.000152019	2751.91
2	1	0	1	0	1	385.473	0.684211	0.684044	0.857222	2	0.0296553	11	0	53.0986	0.000586378	797.977
2	1	0	1	0	1	399.453	0.614307	0.614108	0.0331448	2	0.0336949	11	0	67.0793	2.03545e-05	18528
2	0	0	1	0	1	413.434	0.544404	0.54419	-0.00830421	2	0.0337321	11	0	7.1901	-4.51907e-06	65531.9
2	0	0	1	0	1	427.414	0.474502	0.474246	-0.0109009	2	0.033594	11	0	21.1707	-5.16972e-06	43505.1
2	1	0	1	0	0	441.252	0.494724	0.494479	0.0113782	3	0.033639	11	0	8.8877	5.62628e-06	43458.6
2	1	0	1	0	0	455.233	0.564627	0.564477	0.0141148	3	0.0338097	11	0	22.8683	7.9675e-06	39991.8
2	1	0	1	0	0	469.214	0.63453	0.634319	0.133122	3	0.0344319	11	0	36.8489	8.4442e-05	4764.94
2	1	0	1	0	0	482.967	0.696693	0.696456	1.31028	3	0.0436355	11	0	50.6021	0.000912552	531.532
2	1	0	1	0	0	496.947	0.626791	0.626537	0.0652625	3	0.0501135	11	0	64.5827	4.08894e-05	9600.27
2	1	0	1	0	0	510.928	0.556888	0.556645	-0.00649907	3	0.050282	11	0	4.6935	-3.61767e-06	85650
2	0	0	1	0	0	524.909	0.486985	0.486761	-0.0106526	3	0.0501526	11	0	18.6741	-5.1853e-06	45693.9
2	1	0	0	0	1	538.747	0.482241	0.482038	0.011309	4	0.0501414	11	0	6.3912	5.45138e-06	42624.1
2	1	0	1	0	1	552.727	0.552144	0.551876	0.0130664	4	0.0503057	11	0	20.3718	7.21105e-06	42236.2
2	1	0	0	0	1	566.708	0.622047	0.621788	0.0752207	4	0.0507039	11	0	34.3524	4.67713e-05	8266.18
2	1	0	1	0	1	580.689	0.69195	0.691719	1.18391	4	0.0570069	11	0	48.333	0.000818932	584.268
2	1	0	1	0	1	594.442	0.639273	0.639036	0.122072	4	0.0660913	11	0	62.0862	7.80082e-05	5234.92
2	0	0	0	0	1	608.422	0.56937	0.569129	-0.0045325	4	0.0664966	11	0	2.7961	-2.57958e-06	125566
2	0	0	1	0	1	622.403	0.499467	0.499184	-0.0104779	4	0.0663792	11	0	16.7767	-5.23042e-06	47641.5
2	1	0	0	0	0	636.241	0.469758	0.469532	0.0114611	5	0.0663143	11	0	3.8946	5.38137e-06	40967.3
2	1	0	1	0	0	650.222	0.539662	0.539416	0.0123298	5	0.0664763	11	0	17.8753	6.6509e-06	43748.9
2	1	0	1	0	0	664.202	0.609565	0.609346	0.0444473	5	0.0667582	11	0	31.8559	2.70838e-05	13709.4
2	1	0	1	0	0	678.183	0.679468	0.679268	0.811764	5	0.0706894	11	0	45.8365	0.000551406	836.781
2	1	0	1	0	0	691.936	0.651756	0.651542	0.227229	5	0.0817811	11	0	59.5896	0.000148049	2867.34
2	0	0	1	0	0	705.917	0.581852	0.581605	-0.000875532	5	0.0826306	11	0	0.0999	-5.09214e-07	664287
2	0	0	1	0	0	719.897	0.51195	0.511729	-0.0098037	5	0.0825311	11	0	14.0805	-5.01683e-06	52197.5
2	1	0	1	0	1	733.735	0.457276	0.457022	0.0113592	6	0.0824124	11	0	1.3981	5.19139e-06	40233.8
2	1	0	1	0	1	747.716	0.527179	0.526951	0.0116459	6	0.0825726	11	0	15.3787	6.13679e-06	45247.9
2	1	0	1	0	1	761.696	0.597082	0.596832	0.0287786	6	0.0827935	11	0	29.3593	1.7176e-05	20738.8
2	1	0	1	0	1	775.677	0.666985	0.666746	0.522277	6	0.0851479	11	0	43.3399	0.000348226	1276.61
2	1	0	1	0	1	789.43	0.664239	0.663976	0.395906	6	0.0970828	11	0	57.0931	0.000262872	1677.11
2	0	0	1	0	1	803.411	0.594336	0.594111	0.00624394	6	0.0987062	11	0	71.0737	3.7096e-06	95150
2	1	0	1	0	1	817.391	0.524433	0.524215	-0.00887793	6	0.0986367	11	0	11.3842	-4.65395e-06	59046.9
2	0	0	1	0	1	831.372	0.45453	0.454275	-0.0117593	6	0.0984894	11	0	25.3648	-5.34193e-06	38631.3
2	1	0	0	0	0	845.21	0.514696	0.514484	0.0117445	7	0.0986258	11	0	12.8822	6.04237e-06	43806.2
2	1	0	1	0	0	859.191	0.584599	0.584342	0.0198329	7	0.0988157	11	0	26.8628	1.15892e-05	29463.2
2	1	0	0	0	0	873.171	0.654502	0.654259	0.312842	7	0.100184	11	0	40.8434	0.00020468	2091.34
2	1	0	1	0	0	886.924	0.676722	0.676532	0.615511	7	0.111803	11	0	54.5965	0.000416412	1099.14
2	1	0	1	0	0	900.905	0.606818	0.606625	0.0181571	7	0.114534	11	0	68.5772	1.10146e-05	33409.8
2	0	0	0	0	0	914.886	0.536915	0.536666	-0.00841779	7	0.114514	11	0	9.1873	-4.51754e-06	63753.8
2	0	0	1	0	0	928.866	0.467012	0.466801	-0.0106883	7	0.114374	11	0	23.1679	-4.9893e-06	43674.1
2	1	0	0	0	1	942.704	0.502213	0.501938	0.0110821	8	0.114453	11	0	10.3856	5.56254e-06	45292.6
2	1	0	1	0	1	956.685	0.572116	0.571898	0.0158612	8	0.114627	11	0	24.3662	9.07099e-06	36056.4
2	1	0	1	0	1	970.666	0.64202	0.641808	0.178175	8	0.115429	11	0	38.3469	0.000114354	3602.11
2	1	0	0	0	1	984.419	0.689204	0.688957	0.933106	8	0.12551	11	0	52.1	0.00064287	738.348
2	1	0	1	0	1	998.399	0.619301	0.619067	0.0407004	8	0.130006	11	0	66.0806	2.51962e-05	15210.4
2	1	0	1	0	1	1012.38	0.549397	0.549162	-0.00733776	8	0.130077	11	0	6.8905	-4.02962e-06	74840.6
2	0	0	1	0	1	1026.36	0.479494	0.479247	-0.0107215	8	0.129944	11	0	20.8711	-5.13825e-06	44699.6
2	1	0	1	0	0	1040.2	0.489731	0.489498	0.0112565	9	0.129967	11	0	7.8891	5.51005e-06	43485.7
2	1	0	1	0	0	1054.18	0.559634	0.55941	0.0135143	9	0.130132	11	0	21.8697	7.56004e-06	41393.9
2	1	0	1	0	0	1068.16	0.629537	0.629312	0.100733	9	0.130628	11	0	35.8503	6.33924e-05	6247.33
2	1	0	1	0	0	1082.14	0.699439	0.699184	1.34909	9	0.138355	11	0	49.8309	0.000943261	518.265
2	1	0	1	0	0	1095.89	0.631783	0.631577	0.0798035	9	0.145214	11	0	63.5841	5.04021e-05	7914.15
2	0	0	1	0	0	1109.87	0.561881	0.561687	-0.00603174	9	0.145442	11	0	4.3939	-3.38795e-06	93121.9
2	0	0	1	0	0	1123.85	0.491978	0.491757	-0.0102936	9	0.145318	11	0	18.3745	-5.06195e-06	47773
2	1	0	1	0	1	1137.69	0.477248	0.476982	0.0117497	10	0.145286	11	0	5.3925	5.6044e-06	40595.2
2	1	0	0	0	1	1151.67	0.547151	0.546977	0.0119903	10	0.145448	11	0	19.3732	6.55842e-06	45618.3
2	1	0	1	0	1	1165.65	0.617054	0.616799	0.0577566	10	0.145779	11	0	33.3538	3.56242e-05	10679.3
2	1	0	0	0	1	1179.63	0.686957	0.686757	0.954055	10	0.150705	11	0	47.3344	0.000655204	719.829
2	1	0	1	0	1	1193.39	0.644267	0.644069	0.147948	10	0.159996	11	0	61.0875	9.52889e-05	4353.34
2	0	0	1	0	1	1207.37	0.574363	0.574114	-0.00352654	10	0.160503	11	0	1.5978	-2.02463e-06	162798
2	0	0	0	0	1	1221.35	0.50446	0.504215	-0.00999472	10	0.160392	11	0	15.5784	-5.03949e-06	50448.1
2	1	0	1	0	0	1235.19	0.464765	0.464529	0.0111515	11	0.160305	11	0	2.896	5.18018e-06	41656.3
2	1	0	0	0	0	1249.17	0.534668	0.534431	0.0117486	11	0.160465	11	0	16.8766	6.2788e-06	45488.9
2	1	0	1	0	0	1263.15	0.604572	0.604354	0.0350828	11	0.160711	11	0	30.8573	2.12025e-05	17226.5
2	1	0	1	0	0	1277.13	0.674475	0.674243	0.64587	11	0.163751	11	0	44.8379	0.000435474	1043.93
2	1	0	0	0	0	1290.88	0.656749	0.656505	0.261524	11	0.17452	11	0	58.591	0.000171692	2510.3
2	0	0	1	0	0	1304.86	0.586846	0.586619	0.00101437	11	0.175533	11	0	72.5716	5.95049e-07	578308
2	0	0	1	0	0	1318.84	0.516942	0.516701	-0.0096698	11	0.175441	11	0	13.2816	-4.9964e-06	53434.6
2	1	0	1	0	1	1332.68	0.452283	0.452015	0.0102028	12	0.175302	11	0	0.3995	4.61184e-06	44302.9
2	1	0	1	0	1	1346.66	0.522186	0.521992	0.011308	12	0.17546	11	0	14.3801	5.90267e-06	46161.4
2	1	0	1	0	1	1360.64	0.592089	0.591879	0.0235192	12	0.175661	11	0	28.3607	1.39205e-05	25165.8
2	1	0	1	0	1	1374.62	0.661992	0.661727	0.402207	12	0.177453	11	0	42.3413	0.000266151	1645.24
2	1	0	1	0	1	1388.38	0.669231	0.668995	0.4323	12	0.188531	11	0	56.0945	0.000289206	1547.53
2	1	0	1	0	1	1402.36	0.599329	0.599075	0.00876241	12	0.190336	11	0	70.0751	5.24934e-06	68368.7
2	0	0	1	0	1	1416.34	0.529426	0.529238	-0.00885844	12	0.190278	11	0	11.1845	-4.68822e-06	59743.9
2	0	0	1	0	1	1430.32	0.459523	0.459309	-0.011544	12	0.190134	11	0	25.1651	-5.30226e-06	39787.7
2	1	0	1	0	0	1444.16	0.509702	0.50949	0.0111408	13	0.190245	11	0	11.8835	5.67613e-06	45731.8
2	1	0	0	0	0	1458.14	0.579606	0.579377	0.0175266	13	0.190424	11	0	25.8642	1.01545e-05	33057.1
2	1	0	1	0	0	1472.12	0.649509	0.649269	0.236097	13	0.191469	11	0	39.8448	0.000153291	2750
2	1	0	1	0	0	1485.87	0.681715	0.681505	0.681438	13	0.201853	11	0	53.5979	0.000464403	1000.1
2	1	0	1	0	0	1499.85	0.611812	0.611633	0.0234092	13	0.204944	11	0	67.5785	1.43178e-05	26127.9
2	0	0	1	0	0	1513.83	0.541908	0.541677	-0.00833761	13	0.204945	11	0	8.688	-4.51629e-06	64968
2	0	0	0	0	0	1527.81	0.472005	0.47181	-0.0107388	13	0.204807	11	0	22.6686	-5.06668e-06	43935.1
2	1	0	1	0	1	1541.65	0.49722	0.49697	0.0113234	14	0.204862	11	0	9.387	5.62739e-06	43888.8
2	1	0	0	0	1	1555.63	0.567123	0.566899	0.0142435	14	0.205029	11	0	23.3676	8.07461e-06	39800.6
2	1	0	1	0	1	1569.61	0.637026	0.636837	0.133805	14	0.205654	11	0	37.3482	8.52118e-05	4759.45
2	1	0	1	0	1	1583.36	0.694197	0.693944	1.02619	14	0.214179	11	0	51.1014	0.000712122	676.231
2	1	0	0	0	1	1597.35	0.624294	0.624074	0.0476141	14	0.219129	11	0	65.082	2.97147e-05	13106.9
2	0	0	1	0	1	1611.33	0.554391	0.554138	-0.00715761	14	0.219232	11	0	6.0915	-3.9663e-06	77419.5
2	1	0	1	0	1	1625.31	0.484487	0.484259	-0.0104983	14	0.219102	11	0	20.0722	-5.08392e-06	46127.1
2	1	0	1	0	0	1639.14	0.484738	0.484499	0.0111252	15	0.219101	11	0	6.8905	5.39014e-06	43549.8
2	1	0	1	0	0	1653.13	0.554641	0.554416	0.0127147	15	0.219264	11	0	20.8711	7.04921e-06	43604.5
2	1	0	1	0	0	1667.11	0.624544	0.624333	0.0760169	15	0.219664	11	0	34.8517	4.74599e-05	8213.08
2	1	0	1	0	0	1681.09	0.694447	0.694194	1.11654	15	0.225796	11	0	48.8323	0.000775096	621.737
2	1	0	1	0	0	1694.84	0.636777	0.636568	0.096672	15	0.233278	11	0	62.5855	6.15383e-05	6584.82
2	0	0	1	0	0	1708.82	0.566874	0.566689	-0.00507355	15	0.233578	11	0	3.3953	-2.87512e-06	111695
2	0	0	1	0	0	1722.8	0.496971	0.496722	-0.0100805	15	0.233459	11	0	17.3759	-5.0072e-06	49275.7
2	0	0	1	0	0	1732.19	0.450011	0.449792	-0.0157912	15	0.233357	11	0	26.765	-7.10276e-06	28483.8