File: ACS_Catal_2026/Figures_Na_K/main_figures/data/EC/20251112_2-148_alpha_reproducibility/20251112_2-148_003_alpha_Na_first_1_K1_03_CVA_C01.mpt
EC-Lab ASCII FILE
Nb header lines : 66

Cyclic Voltammetry Advanced

Run on channel : 1 (SN 69187)
User :
CE vs. WE compliance from -10 V to 10 V
Electrode connection : standard
Potential control : Ewe
Ewe ctrl range : min = -1.00 V, max = 1.00 V
Safety Limits :
	Do not start on E overload
Acquisition started on : 11/12/2025 16:18:27.289
Loaded Setting File :  C:\Users\User\Documents\EC-Lab\Data\Yatsuzuka\20251030_2-147_gamma_reproducibility\20251030_2-147_001_gamma1_K_1.mps
Saved on :
	File : 20251112_2-148_003_alpha_Na_first_1_K1_03_CVA_C01.mpr
	Directory : C:\Users\User\Documents\EC-Lab\Data\Yatsuzuka\20251112_2-148_alpha_reproducibility\
	Host : 192.109.209.127
Device : SP-150e (SN .003883)
Address : 192.109.209.128
EC-Lab for windows v11.52 (software)
Internet server v11.52 (firmware)
Command interpretor v11.50 (firmware)
Electrode material :
Initial state :
Electrolyte :
Comments :
Electrode surface area : 0.001 cm2
Characteristic mass : 0.001 g
Equivalent Weight : 0.000 g/eq.
Density : 0.000 g/cm3
Volume (V) : 0.001 cm3
Cycle Definition : Charge/Discharge alternance
Ei (V)              0.450
vs.                 Ref
ti (h:m:s)          0:00:10.0000
dti (s)             0.0000
dE/dt               5.000
dE/dt unit          mV/s
E1 (V)              0.700
vs.                 Ref
t1 (h:m:s)          0:00:0.0000
dt1 (s)             0.1000
Step percent        50
N                   10
E range min (V)     -1.000
E range max (V)     1.000
I Range             10 mA
I Range min         Unset
I Range max         Unset
I Range init        Unset
Bandwidth           5
E2 (V)              0.450
vs.                 Ref
t2 (h:m:s)          0:00:0.0000
dt2 (s)             0.1000
nc cycles           14
nr                  1
Reverse Scan        0
Ef (V)              0.000
vs.                 Eoc
tf (h:m:s)          0:00:0.0000
dtf (s)             0.1000

mode	ox/red	error	control changes	Ns changes	counter inc.	time/s	control/V	Ewe/V	<I>/mA	cycle number	(Q-Qo)/C	I Range	Ns	step time/s	P/W
2	0	0	1	0	0	231.837	0.449961	0.449831	-0.00915854	1	0.0000000E+000	11	0	0.000000000000000E+000	-4.11979e-06
2	0	0	1	0	0	238.882	0.485187	0.484969	0.0125688	1	9.36458e-05	11	0	6.9902	6.09547e-06
2	1	0	1	0	0	245.973	0.520638	0.520453	0.0132842	1	0.000188964	11	0	14.0804	6.91383e-06
2	1	0	1	0	0	253.063	0.556089	0.555904	0.0170835	1	0.000296238	11	0	21.1706	9.49676e-06
2	1	0	1	0	0	260.153	0.59154	0.591343	0.0364967	1	0.00046801	11	0	28.2608	2.15821e-05
2	1	0	1	0	0	267.243	0.62699	0.62677	0.131172	1	0.000972283	11	0	35.3509	8.22148e-05
2	1	0	0	0	0	274.333	0.662441	0.662247	0.533382	1	0.00303234	11	0	42.4411	0.00035323
2	1	0	1	0	0	281.423	0.697891	0.69771	1.53013	1	0.0100097	11	0	49.5312	0.00106759
2	1	0	1	0	0	288.296	0.667733	0.667494	0.508272	1	0.0168386	11	0	56.404	0.000339268
2	1	0	1	0	0	295.386	0.632283	0.632071	0.111839	1	0.0187365	11	0	63.4941	7.06903e-05
2	1	0	0	0	0	302.477	0.596832	0.596632	0.0159436	1	0.0191129	11	0	70.5843	9.51247e-06
2	1	0	1	0	0	309.567	0.561381	0.561124	-0.00356858	1	0.0191376	11	0	1.6977	-2.00242e-06
2	1	0	1	0	0	316.657	0.525931	0.52571	-0.00803956	1	0.0190873	11	0	8.7878	-4.22648e-06
2	0	0	1	0	0	323.747	0.49048	0.490261	-0.010577	1	0.0190171	11	0	15.878	-5.18548e-06
2	0	0	1	0	0	330.837	0.455029	0.454834	-0.0119933	1	0.0189363	11	0	22.9682	-5.45494e-06
2	1	0	1	0	1	337.785	0.479745	0.479537	0.0126987	2	0.0189954	11	0	5.8919	6.08948e-06
2	1	0	1	0	1	344.875	0.515195	0.514973	0.0124312	2	0.0190832	11	0	12.982	6.40174e-06
2	1	0	0	0	1	351.965	0.550646	0.550427	0.0149038	2	0.0191771	11	0	20.0722	8.20345e-06
2	1	0	1	0	1	359.055	0.586097	0.58593	0.0271497	2	0.0193146	11	0	27.1623	1.59078e-05
2	1	0	1	0	1	366.145	0.621548	0.62134	0.0949573	2	0.0196891	11	0	34.2525	5.90007e-05
2	1	0	1	0	1	373.236	0.656999	0.656747	0.412161	2	0.0212433	11	0	41.3427	0.000270686
2	1	0	1	0	1	380.326	0.69245	0.692194	1.2841	2	0.0269017	11	0	48.4329	0.000888845
2	1	0	1	0	1	387.189	0.673226	0.673005	0.592607	2	0.0343397	11	0	55.2956	0.000398828
2	1	0	1	0	1	394.279	0.637776	0.637574	0.141516	2	0.036644	11	0	62.3857	9.0227e-05
2	1	0	1	0	1	401.369	0.602325	0.602085	0.0228329	2	0.0371206	11	0	69.4759	1.37473e-05
2	0	0	1	0	1	408.459	0.566874	0.566709	-0.00367331	2	0.0371637	11	0	0.9986	-2.0817e-06
2	1	0	1	0	1	415.549	0.531423	0.531226	-0.00769772	2	0.0371177	11	0	8.0888	-4.08923e-06
2	0	0	1	0	1	422.639	0.495972	0.495705	-0.0107678	2	0.0370491	11	0	15.1789	-5.33764e-06
2	0	0	0	0	1	429.73	0.460521	0.460288	-0.0126381	2	0.0369699	11	0	22.2691	-5.81715e-06
2	0	0	1	0	0	436.677	0.474252	0.474021	0.0111487	3	0.0370015	11	0	4.7934	5.28474e-06
2	1	0	1	0	0	443.767	0.509702	0.509491	0.0118559	3	0.0370884	11	0	11.8835	6.04046e-06
2	1	0	1	0	0	450.857	0.545154	0.544974	0.0135836	3	0.0371785	11	0	18.9737	7.40273e-06
2	1	0	1	0	0	457.948	0.580605	0.580414	0.0219831	3	0.0372997	11	0	26.0639	1.27593e-05
2	1	0	1	0	0	465.038	0.616056	0.615858	0.0740914	3	0.0375958	11	0	33.1541	4.56298e-05
2	1	0	1	0	0	472.128	0.651506	0.651295	0.318881	3	0.0387844	11	0	40.2442	0.000207685
2	1	0	0	0	0	479.218	0.686957	0.686751	1.06866	3	0.0433532	11	0	47.3344	0.000733903
2	1	0	1	0	0	486.081	0.678719	0.678492	0.686405	3	0.0509909	11	0	54.1971	0.000465721
2	1	0	1	0	0	493.171	0.643268	0.643056	0.171034	3	0.053667	11	0	61.2873	0.000109984
2	1	0	1	0	0	500.261	0.607816	0.607595	0.0297082	3	0.0542562	11	0	68.3775	1.80505e-05
2	1	0	0	0	0	507.351	0.572366	0.572178	-0.000319506	3	0.0543294	11	0	0.000000000000000E+000	-1.82814e-07
2	0	0	1	0	0	514.442	0.536915	0.536702	-0.00915435	3	0.0542896	11	0	6.9903	-4.91316e-06
2	1	0	1	0	0	521.532	0.501465	0.501235	-0.00910528	3	0.054223	11	0	14.0804	-4.56388e-06
2	0	0	1	0	0	528.622	0.466014	0.465765	-0.01271	3	0.0541448	11	0	21.1706	-5.91987e-06
2	1	0	1	0	1	535.569	0.46876	0.468528	0.0126952	4	0.0541493	11	0	3.6949	5.94803e-06
2	0	0	1	0	1	542.66	0.504211	0.50396	0.0112049	4	0.0542343	11	0	10.7851	5.64681e-06
2	1	0	1	0	1	549.75	0.539662	0.539482	0.0134888	4	0.0543221	11	0	17.8753	7.27699e-06
2	1	0	0	0	1	556.84	0.575112	0.574896	0.0190199	4	0.0544321	11	0	24.9654	1.09345e-05
2	1	0	1	0	1	563.93	0.610563	0.610324	0.0591835	4	0.0546733	11	0	32.0556	3.61211e-05
2	1	0	1	0	1	571.02	0.646014	0.645803	0.249422	4	0.0555969	11	0	39.1457	0.000161078
2	1	0	1	0	1	578.11	0.681465	0.68123	0.895514	4	0.0593038	11	0	46.2359	0.000610051
2	1	0	0	0	1	584.973	0.684211	0.684041	0.816747	4	0.0670535	11	0	53.0986	0.000558689
2	1	0	1	0	1	592.063	0.64876	0.648553	0.204676	4	0.0702467	11	0	60.1888	0.000132744
2	1	0	0	0	1	599.154	0.613309	0.613065	0.0362035	4	0.0709583	11	0	67.279	2.21951e-05
2	1	0	1	0	1	606.244	0.577859	0.577645	0.00109383	4	0.0710566	11	0	0.000000000000000E+000	6.31844e-07
2	0	0	1	0	1	613.334	0.542408	0.542202	-0.00865183	4	0.0710227	11	0	6.0916	-4.69104e-06
2	1	0	1	0	1	620.424	0.506957	0.506711	-0.00880338	4	0.0709584	11	0	13.1818	-4.46077e-06
2	0	0	1	0	1	627.514	0.471505	0.471293	-0.0116633	4	0.0708822	11	0	20.272	-5.49683e-06
2	1	0	0	0	0	634.462	0.463267	0.463024	0.0124159	5	0.0708601	11	0	2.5964	5.74884e-06
2	1	0	1	0	0	641.552	0.498718	0.498452	0.011647	5	0.0709447	11	0	9.6866	5.8055e-06
2	1	0	1	0	0	648.642	0.534169	0.534013	0.0115018	5	0.0710306	11	0	16.7767	6.14213e-06
2	1	0	1	0	0	655.732	0.56962	0.569414	0.0183172	5	0.0711335	11	0	23.8669	1.04301e-05
2	1	0	1	0	0	662.822	0.605071	0.604883	0.0472935	5	0.071334	11	0	30.9571	2.8607e-05
2	1	0	1	0	0	669.913	0.640522	0.640339	0.193412	5	0.0720546	11	0	38.0473	0.000123849
2	1	0	1	0	0	677.003	0.675973	0.675748	0.7441	5	0.0750439	11	0	45.1375	0.000502823
2	1	0	1	0	0	683.865	0.689704	0.689509	0.979345	5	0.0826241	11	0	52.0001	0.000675267
2	1	0	1	0	0	690.956	0.654253	0.654031	0.25462	5	0.086507	11	0	59.0903	0.000166529
2	1	0	1	0	0	698.046	0.618802	0.618577	0.0489699	5	0.0874109	11	0	66.1805	3.02916e-05
2	1	0	1	0	0	705.136	0.58335	0.583113	0.00337448	5	0.0875491	11	0	73.2707	1.9677e-06
2	1	0	0	0	0	712.226	0.5479	0.547635	-0.00622082	5	0.087525	11	0	5.1928	-3.40674e-06
2	0	0	1	0	0	719.316	0.512449	0.512242	-0.00929711	5	0.0874634	11	0	12.283	-4.76237e-06
2	0	0	0	0	0	726.407	0.476998	0.476789	-0.0113951	5	0.0873889	11	0	19.3732	-5.43306e-06
2	1	0	1	0	1	733.354	0.457775	0.457526	0.012118	6	0.0873424	11	0	1.4979	5.54432e-06
2	1	0	1	0	1	740.444	0.493226	0.493009	0.01195	6	0.0874268	11	0	8.5881	5.89147e-06
2	0	0	1	0	1	747.534	0.528677	0.52843	0.0113073	6	0.0875121	11	0	15.6783	5.97511e-06
2	1	0	1	0	1	754.625	0.564128	0.563924	0.0156373	6	0.0876095	11	0	22.7685	8.81827e-06
2	1	0	0	0	1	761.715	0.599578	0.599377	0.0385991	6	0.0877798	11	0	29.8586	2.31354e-05
2	1	0	1	0	1	768.805	0.635029	0.634835	0.150626	6	0.0883446	11	0	36.9488	9.56226e-05
2	1	0	1	0	1	775.895	0.67048	0.670242	0.609764	6	0.0907289	11	0	44.0389	0.000408689
2	1	0	1	0	1	782.758	0.695196	0.694977	1.18067	6	0.0978099	11	0	50.9017	0.000820537
2	1	0	1	0	1	789.848	0.659744	0.659485	0.310543	6	0.102502	11	0	57.9919	0.000204799
2	1	0	1	0	1	796.938	0.624294	0.624079	0.0605278	6	0.10361	11	0	65.082	3.77741e-05
2	0	0	0	0	1	804.028	0.588843	0.588602	0.00462711	6	0.103793	11	0	72.1722	2.72352e-06
2	1	0	1	0	1	811.118	0.553393	0.553208	-0.00548961	6	0.103779	11	0	4.4937	-3.0369e-06
2	0	0	1	0	1	818.209	0.517942	0.517727	-0.0103122	6	0.103721	11	0	11.5839	-5.33888e-06
2	1	0	1	0	1	825.299	0.482491	0.482258	-0.00984375	6	0.103648	11	0	18.6741	-4.74723e-06
2	1	0	1	0	0	832.246	0.452283	0.452049	0.0108143	7	0.103577	11	0	0.3995	4.88861e-06
2	1	0	1	0	0	839.337	0.487734	0.487509	0.011046	7	0.10366	11	0	7.4897	5.38501e-06
2	1	0	1	0	0	846.427	0.523184	0.52298	0.0123894	7	0.103745	11	0	14.5798	6.47942e-06
2	1	0	0	0	0	853.517	0.558635	0.558393	0.0146884	7	0.103837	11	0	21.67	8.20191e-06
2	1	0	1	0	0	860.607	0.594085	0.593872	0.0305436	7	0.103985	11	0	28.7601	1.8139e-05
2	1	0	1	0	0	867.697	0.629537	0.629374	0.117967	7	0.104434	11	0	35.8503	7.42456e-05
2	1	0	1	0	0	874.787	0.664988	0.664766	0.499789	7	0.106342	11	0	42.9405	0.000332243
2	1	0	1	0	0	881.785	0.700014	0.699745	1.38264	7	0.112694	11	0	49.938	0.000967497
2	1	0	1	0	0	888.74	0.665237	0.665038	0.403684	7	0.118346	11	0	56.8934	0.000268465
2	1	0	1	0	0	895.83	0.629787	0.629569	0.0842466	7	0.119822	11	0	63.9835	5.3039e-05
2	1	0	1	0	0	902.921	0.594336	0.594103	0.011268	7	0.120097	11	0	71.0737	6.69432e-06
2	0	0	1	0	0	910.011	0.558885	0.558673	-0.00538028	7	0.120101	11	0	3.2954	-3.00582e-06
2	0	0	1	0	0	917.101	0.523433	0.523166	-0.00996223	7	0.120046	11	0	10.3856	-5.2119e-06
2	1	0	1	0	0	924.191	0.487983	0.487781	-0.00981265	7	0.119975	11	0	17.4757	-4.78642e-06
2	0	0	0	0	0	931.281	0.452532	0.452291	-0.0121862	7	0.119893	11	0	24.5659	-5.51171e-06
2	1	0	1	0	1	938.229	0.482241	0.482006	0.012398	8	0.119962	11	0	6.3912	5.97593e-06
2	1	0	1	0	1	945.319	0.517692	0.517449	0.0125116	8	0.120046	11	0	13.4813	6.47409e-06
2	1	0	1	0	1	952.409	0.553143	0.552903	0.0147221	8	0.120135	11	0	20.5715	8.13992e-06
2	1	0	1	0	1	959.499	0.588594	0.588376	0.0266033	8	0.120267	11	0	27.6617	1.56528e-05
2	1	0	1	0	1	966.59	0.624045	0.623859	0.0936225	8	0.120628	11	0	34.7519	5.84073e-05
2	1	0	1	0	1	973.68	0.659495	0.659258	0.403135	8	0.122144	11	0	41.842	0.00026577
2	1	0	0	0	1	980.77	0.694946	0.694707	1.28682	8	0.127748	11	0	48.9322	0.000893962
2	1	0	1	0	1	987.633	0.67073	0.670508	0.521502	8	0.134385	11	0	55.7949	0.000349671
2	1	0	1	0	1	994.723	0.635278	0.635088	0.118031	8	0.136388	11	0	62.8851	7.49598e-05
2	1	0	1	0	1	1001.81	0.599828	0.599601	0.0175545	8	0.136779	11	0	69.9752	1.05257e-05
2	0	0	0	0	1	1008.9	0.564377	0.564179	-0.00433555	8	0.136804	11	0	1.8974	-2.44603e-06
2	0	0	1	0	1	1015.99	0.528926	0.528678	-0.00964404	8	0.136754	11	0	8.9876	-5.09859e-06
2	1	0	1	0	1	1023.08	0.493476	0.493319	-0.00956025	8	0.136685	11	0	16.0777	-4.71625e-06
2	0	0	1	0	1	1030.17	0.458025	0.457762	-0.0121337	8	0.136605	11	0	23.1679	-5.55436e-06
2	1	0	1	0	0	1037.12	0.476749	0.476526	0.0124487	9	0.136648	11	0	5.2927	5.93215e-06
2	1	0	1	0	0	1044.21	0.5122	0.51195	0.0126685	9	0.136732	11	0	12.3829	6.48564e-06
2	1	0	1	0	0	1051.3	0.54765	0.547377	0.0134764	9	0.136819	11	0	19.473	7.37667e-06
2	1	0	0	0	0	1058.39	0.583101	0.58285	0.0221874	9	0.136938	11	0	26.5632	1.29319e-05
2	1	0	1	0	0	1065.48	0.618552	0.618339	0.0748788	9	0.137233	11	0	33.6534	4.63005e-05
2	1	0	1	0	0	1070.18	0.64202	0.641815	0.196582	9	0.137822	11	0	38.3469	0.000126169