File: ACS_Catal_2026/Figures_Na_K/main_figures/data/EC/20251112_2-148_alpha_reproducibility/20251112_2-148_003_alpha_Na_first_1_Na1_02_PEIS_C01.mpt
EC-Lab ASCII FILE
Nb header lines : 63

Potentio Electrochemical Impedance Spectroscopy

Run on channel : 1 (SN 69187)
User :
CE vs. WE compliance from -10 V to 10 V
Electrode connection : standard
Potential control : Ewe
Ewe ctrl range : min = -1.00 V, max = 1.00 V
Safety Limits :
	Do not start on E overload
Acquisition started on : 11/12/2025 15:46:22.293
Loaded Setting File :  C:\Users\User\Documents\EC-Lab\Data\Yatsuzuka\20251030_2-147_gamma_reproducibility\20251030_2-147_001_gamma1_K_1.mps
Saved on :
	File : 20251112_2-148_003_alpha_Na_first_1_Na1_02_PEIS_C01.mpr
	Directory : C:\Users\User\Documents\EC-Lab\Data\Yatsuzuka\20251112_2-148_alpha_reproducibility\
	Host : 192.109.209.127
Device : SP-150e (SN .003883)
Address : 192.109.209.128
EC-Lab for windows v11.52 (software)
Internet server v11.52 (firmware)
Command interpretor v11.50 (firmware)
Electrode material :
Initial state :
Electrolyte :
Comments :
Electrode surface area : 0.001 cm2
Characteristic mass : 0.001 g
Equivalent Weight : 0.000 g/eq.
Density : 0.000 g/cm3
Volume (V) : 0.001 cm3
Cycle Definition : Charge/Discharge alternance
Mode                Single sine
E (V)               0.4500
vs.                 Ref
tE (h:m:s)          0:00:0.0000
record              0
dI                  0.000
unit dI             mA
dt (s)              0.000
fi                  500.000
unit fi             kHz
ff                  1.000
unit ff             Hz
Nd                  6
Points              per decade
spacing             Logarithmic
Va (mV)             10.0
pw                  0.10
Na                  2
corr                0
E range min (V)     -1.000
E range max (V)     1.000
I Range             Auto
Bandwidth           5
nc cycles           0
goto Ns'            0
nr cycles           0
inc. cycle          0

freq/Hz	Re(Z)/Ohm	-Im(Z)/Ohm	|Z|/Ohm	Phase(Z)/deg	time/s	<Ewe>/V	<I>/mA	Cs/uF	Cp/uF	cycle number	I Range	|Ewe|/V	|I|/A	Ns	(Q-Qo)/mA.h	Re(Y)/Ohm-1	Im(Y)/Ohm-1	|Y|/Ohm-1	Phase(Y)/deg	Re(C)/nF	Im(C)/nF	|C|/nF	Phase(C)/deg	Re(M)	Im(M)	|M|	Phase(M)/deg	Re(Permittivity)	Im(Permittivity)	|Permittivity|	Phase(Permittivity)/deg	Re(Resistivity)/Ohm.cm	Im(Resistivity)/Ohm.cm	|Resistivity|/Ohm.cm	Phase(Resistivity)/deg	Re(Conductivity)/mS/cm	Im(Conductivity)/mS/cm	|Conductivity|/mS/cm	Phase(Conductivity)/deg	Tan(Delta)	Loss Angle(Delta)/deg	dq/mA.h
500019	17.7801	-2.56033	17.9635	8.19426	201.733	0.450135	0.018142	-0.124319	-0.00252551	1	10	0.00560447	0.000311993	0	2.43007e-05	0.0551002	-0.00793442	0.0556685	-8.19426	-2.52551	17.5383	17.7192	-98.1943	0.0000000E+000	0.0000000E+000	0.0000000E+000	98.1943	0.0000000E+000	0.0000000E+000	0.0000000E+000	-98.1943	0.0000000E+000	0.0000000E+000	0.0000000E+000	8.19426	0.0000000E+000	0.0000000E+000	0.0000000E+000	-8.19426	6.94445	81.8057	2.43007e-05
231063	10.3774	-1.05752	10.4312	5.81868	202.577	0.449819	0.0194539	-0.651331	-0.0066944	1	10	0.0104946	0.00100608	0	2.91622e-05	0.0953725	-0.00971899	0.0958664	-5.81868	-6.6944	65.6921	66.0324	-95.8187	0.0000000E+000	0.0000000E+000	0.0000000E+000	95.8187	0.0000000E+000	0.0000000E+000	0.0000000E+000	-95.8187	0.0000000E+000	0.0000000E+000	0.0000000E+000	5.81868	0.0000000E+000	0.0000000E+000	0.0000000E+000	-5.81868	9.813	84.1813	2.56473e-06
106786	9.3772	-0.289686	9.38167	1.76945	203.421	0.449769	0.0201042	-5.1449	-0.00490537	1	10	0.0109374	0.00116583	0	2.906e-05	0.10654	-0.0032913	0.106591	-1.76945	-4.90538	158.788	158.864	-91.7695	0.0000000E+000	0.0000000E+000	0.0000000E+000	91.7695	0.0000000E+000	0.0000000E+000	0.0000000E+000	-91.7695	0.0000000E+000	0.0000000E+000	0.0000000E+000	1.76945	0.0000000E+000	0.0000000E+000	0.0000000E+000	-1.76945	32.3702	88.2305	3.91602e-07
49352.4	9.25626	-0.0894928	9.25669	0.553939	204.265	0.449773	0.0170146	-36.035	-0.00336813	1	10	0.0106087	0.00114606	0	3.58844e-05	0.108025	-0.00104442	0.10803	-0.553939	-3.36814	348.366	348.382	-90.5539	0.0000000E+000	0.0000000E+000	0.0000000E+000	90.5539	0.0000000E+000	0.0000000E+000	0.0000000E+000	-90.5539	0.0000000E+000	0.0000000E+000	0.0000000E+000	0.553939	0.0000000E+000	0.0000000E+000	0.0000000E+000	-0.553939	103.43	89.4461	2.69827e-06
22806.6	9.24582	-0.0237111	9.24585	0.146936	205.109	0.449762	0.0149891	-294.312	-0.00193561	1	10	0.0104887	0.00113442	0	4.09199e-05	0.108156	-0.000277369	0.108157	-0.146936	-1.93559	754.765	754.768	-90.1469	0.0000000E+000	0.0000000E+000	0.0000000E+000	90.1469	0.0000000E+000	0.0000000E+000	0.0000000E+000	-90.1469	0.0000000E+000	0.0000000E+000	0.0000000E+000	0.146936	0.0000000E+000	0.0000000E+000	0.0000000E+000	-0.146936	389.936	89.8531	2.40842e-06
10540.4	9.24211	0.00186663	9.24211	-0.011572	205.953	0.449768	0.0166158	8089.19	0.000329975	1	10	0.0103264	0.00111733	0	4.51823e-05	0.1082	2.18533e-05	0.1082	0.011572	0.330024	1633.78	1633.78	-89.9884	0.0000000E+000	0.0000000E+000	0.0000000E+000	89.9884	0.0000000E+000	0.0000000E+000	0.0000000E+000	-89.9884	0.0000000E+000	0.0000000E+000	0.0000000E+000	-0.011572	0.0000000E+000	0.0000000E+000	0.0000000E+000	0.011572	4951.22	89.9884	1.85661e-06
4871.56	9.25132	0.0295103	9.25137	-0.182764	206.945	0.449762	0.0165189	1107.08	0.0112645	1	10	0.0109558	0.00118423	0	4.88703e-05	0.108092	0.000344795	0.108092	0.182764	11.2644	3531.38	3531.39	-89.8172	0.0000000E+000	0.0000000E+000	0.0000000E+000	89.8172	0.0000000E+000	0.0000000E+000	0.0000000E+000	-89.8172	0.0000000E+000	0.0000000E+000	0.0000000E+000	-0.182764	0.0000000E+000	0.0000000E+000	0.0000000E+000	0.182764	313.495	89.8172	1.74186e-06
2250.72	9.25264	0.0563067	9.25281	-0.348668	208.097	0.449766	0.0160754	1255.85	0.0465063	1	10	0.0103095	0.0011142	0	5.22719e-05	0.108073	0.000657678	0.108075	0.348668	46.5067	7642.17	7642.32	-89.6513	0.0000000E+000	0.0000000E+000	0.0000000E+000	89.6513	0.0000000E+000	0.0000000E+000	0.0000000E+000	-89.6513	0.0000000E+000	0.0000000E+000	0.0000000E+000	-0.348668	0.0000000E+000	0.0000000E+000	0.0000000E+000	0.348668	164.326	89.6513	1.86339e-06
1040.33	9.26127	0.0911356	9.26172	-0.563801	209.027	0.449768	0.0167556	1678.65	0.162537	1	10	0.0104576	0.00112912	0	5.69432e-05	0.107966	0.00106244	0.107971	0.563801	162.538	16517.2	16518	-89.4362	0.0000000E+000	0.0000000E+000	0.0000000E+000	89.4362	0.0000000E+000	0.0000000E+000	0.0000000E+000	-89.4362	0.0000000E+000	0.0000000E+000	0.0000000E+000	-0.563801	0.0000000E+000	0.0000000E+000	0.0000000E+000	0.563801	101.621	89.4362	2.38676e-06
480.769	9.28368	0.194914	9.28572	-1.20277	209.957	0.449766	0.0150971	1698.41	0.748332	1	10	0.0104971	0.00113045	0	6.11561e-05	0.107668	0.00226053	0.107692	1.20277	748.333	35642.8	35650.7	-88.7972	0.0000000E+000	0.0000000E+000	0.0000000E+000	88.7972	0.0000000E+000	0.0000000E+000	0.0000000E+000	-88.7972	0.0000000E+000	0.0000000E+000	0.0000000E+000	-1.20277	0.0000000E+000	0.0000000E+000	0.0000000E+000	1.20277	47.6297	88.7972	2.03133e-06
222.061	9.31449	0.377022	9.32212	-2.31789	210.881	0.449761	0.0162133	1901	3.10947	1	10	0.0105089	0.00112731	0	6.4587e-05	0.107184	0.00433848	0.107272	2.31789	3109.47	76820.7	76883.6	-87.6821	0.0000000E+000	0.0000000E+000	0.0000000E+000	87.6821	0.0000000E+000	0.0000000E+000	0.0000000E+000	-87.6821	0.0000000E+000	0.0000000E+000	0.0000000E+000	-2.31789	0.0000000E+000	0.0000000E+000	0.0000000E+000	2.31789	24.7054	87.6821	9.02922e-07
102.667	9.37166	0.753169	9.40187	-4.59479	211.819	0.449761	0.0153524	2058.24	13.2084	1	10	0.0105151	0.0011184	0	7.00572e-05	0.10602	0.00852046	0.106362	4.59479	13208.4	164352	164882	-85.4052	0.0000000E+000	0.0000000E+000	0.0000000E+000	85.4052	0.0000000E+000	0.0000000E+000	0.0000000E+000	-85.4052	0.0000000E+000	0.0000000E+000	0.0000000E+000	-4.59479	0.0000000E+000	0.0000000E+000	0.0000000E+000	4.59479	12.443	85.4052	3.0885e-06
47.4443	9.47786	1.50934	9.59729	-9.04832	212.731	0.449761	0.0141542	2222.54	54.97	1	10	0.010518	0.00109593	0	7.55343e-05	0.1029	0.0163867	0.104196	9.04832	54970	345183	349532	-80.9517	0.0000000E+000	0.0000000E+000	0.0000000E+000	80.9517	0.0000000E+000	0.0000000E+000	0.0000000E+000	-80.9517	0.0000000E+000	0.0000000E+000	0.0000000E+000	-9.04832	0.0000000E+000	0.0000000E+000	0.0000000E+000	9.04832	6.27947	80.9517	2.89986e-06
21.9144	9.65371	3.03248	10.1188	-17.4388	213.599	0.449747	0.0141747	2394.93	215.095	1	10	0.0105369	0.00104132	0	8.09197e-05	0.0942837	0.0296169	0.098826	17.4388	215094	684741	717730	-72.5612	0.0000000E+000	0.0000000E+000	0.0000000E+000	72.5612	0.0000000E+000	0.0000000E+000	0.0000000E+000	-72.5612	0.0000000E+000	0.0000000E+000	0.0000000E+000	-17.4388	0.0000000E+000	0.0000000E+000	0.0000000E+000	17.4388	3.18344	72.5612	4.3387e-06
10.1329	9.91444	6.16793	11.6764	-31.8864	214.526	0.449762	0.0154232	2546.51	710.562	1	10	0.0105432	0.000902948	0	8.298e-05	0.0727188	0.0452395	0.0856425	31.8864	710562	1.14217e+06	1.34516e+06	-58.1136	0.0000000E+000	0.0000000E+000	0.0000000E+000	58.1136	0.0000000E+000	0.0000000E+000	0.0000000E+000	-58.1136	0.0000000E+000	0.0000000E+000	0.0000000E+000	-31.8864	0.0000000E+000	0.0000000E+000	0.0000000E+000	31.8864	1.60742	58.1136	-8.56258e-07
4.68375	10.3798	12.7253	16.4218	-50.7964	215.576	0.449768	0.00432407	2670.29	1603.45	1	11	0.0105536	0.000642657	0	9.38664e-05	0.0384903	0.0471877	0.0608948	50.7964	1.60345e+06	1.30791e+06	2.06922e+06	-39.2036	0.0000000E+000	0.0000000E+000	0.0000000E+000	39.2036	0.0000000E+000	0.0000000E+000	0.0000000E+000	-39.2036	0.0000000E+000	0.0000000E+000	0.0000000E+000	-50.7964	0.0000000E+000	0.0000000E+000	0.0000000E+000	50.7964	0.815684	39.2036	9.06534e-06
2.16533	11.1385	26.8101	29.0318	-67.4391	217.29	0.449772	0.00538282	2741.56	2338.01	1	11	0.0105506	0.000363416	0	8.4103e-05	0.0132153	0.0318089	0.0344449	67.4391	2.33801e+06	971348	2.53176e+06	-22.5609	0.0000000E+000	0.0000000E+000	0.0000000E+000	22.5609	0.0000000E+000	0.0000000E+000	0.0000000E+000	-22.5609	0.0000000E+000	0.0000000E+000	0.0000000E+000	-67.4391	0.0000000E+000	0.0000000E+000	0.0000000E+000	67.4391	0.41546	22.5609	-4.45739e-06
1.00006	12.5187	56.995	58.3536	-77.6119	221.63	0.449777	0.00403713	2792.26	2663.75	1	12	0.0105519	0.000180826	0	0.000100397	0.00367641	0.0167379	0.0171369	77.6119	2.66375e+06	585081	2.72725e+06	-12.3881	0.0000000E+000	0.0000000E+000	0.0000000E+000	12.3881	0.0000000E+000	0.0000000E+000	0.0000000E+000	-12.3881	0.0000000E+000	0.0000000E+000	0.0000000E+000	-77.6119	0.0000000E+000	0.0000000E+000	0.0000000E+000	77.6119	0.219646	12.3881	8.77029e-06