File: ACS_Catal_2026/Figures_Na_K/main_figures/data/EC/20251112_2-148_alpha_reproducibility/20251112_2-148_005_gamma_reproducibility_K2_03_CVA_C01.mpt
EC-Lab ASCII FILE
Nb header lines : 66

Cyclic Voltammetry Advanced

Run on channel : 1 (SN 69187)
User :
CE vs. WE compliance from -10 V to 10 V
Electrode connection : standard
Potential control : Ewe
Ewe ctrl range : min = -1.00 V, max = 1.00 V
Safety Limits :
	Do not start on E overload
Acquisition started on : 11/12/2025 20:19:02.947
Loaded Setting File :  C:\Users\User\Documents\EC-Lab\Data\Yatsuzuka\20251030_2-147_gamma_reproducibility\20251030_2-147_001_gamma1_K_1.mps
Saved on :
	File : 20251112_2-148_005_gamma_reproducibility_K2_03_CVA_C01.mpr
	Directory : C:\Users\User\Documents\EC-Lab\Data\Yatsuzuka\20251112_2-148_alpha_reproducibility\
	Host : 192.109.209.127
Device : SP-150e (SN .003883)
Address : 192.109.209.128
EC-Lab for windows v11.52 (software)
Internet server v11.52 (firmware)
Command interpretor v11.50 (firmware)
Electrode material :
Initial state :
Electrolyte :
Comments :
Electrode surface area : 0.001 cm2
Characteristic mass : 0.001 g
Equivalent Weight : 0.000 g/eq.
Density : 0.000 g/cm3
Volume (V) : 0.001 cm3
Cycle Definition : Charge/Discharge alternance
Ei (V)              0.450
vs.                 Ref
ti (h:m:s)          0:00:10.0000
dti (s)             0.0000
dE/dt               5.000
dE/dt unit          mV/s
E1 (V)              0.700
vs.                 Ref
t1 (h:m:s)          0:00:0.0000
dt1 (s)             0.1000
Step percent        50
N                   10
E range min (V)     -1.000
E range max (V)     1.000
I Range             10 mA
I Range min         Unset
I Range max         Unset
I Range init        Unset
Bandwidth           5
E2 (V)              0.450
vs.                 Ref
t2 (h:m:s)          0:00:0.0000
dt2 (s)             0.1000
nc cycles           14
nr                  1
Reverse Scan        0
Ef (V)              0.000
vs.                 Eoc
tf (h:m:s)          0:00:0.0000
dtf (s)             0.1000

mode	ox/red	error	control changes	Ns changes	counter inc.	time/s	control/V	Ewe/V	<I>/mA	cycle number	(Q-Qo)/C	I Range	Ns	step time/s	P/W
2	0	0	0	0	0	232.362	0.449961	0.449735	-0.00572341	1	0.0000000E+000	11	0	0.000000000000000E+000	-2.57402e-06
2	1	0	1	0	0	245.399	0.515146	0.514931	0.00148856	1	2.16585e-05	11	0	12.982	7.66508e-07
2	1	0	1	0	0	258.481	0.580555	0.580312	0.00178921	1	4.40478e-05	11	0	26.0638	1.0383e-06
2	1	0	1	0	0	271.563	0.645963	0.645712	0.0257212	1	0.000139658	11	0	39.1456	1.66085e-05
2	1	0	1	0	0	284.427	0.689704	0.689511	0.166233	1	0.00163316	11	0	52.01	0.000114619
2	1	0	1	0	0	297.509	0.624294	0.624095	0.00897263	1	0.00248104	11	0	65.0919	5.59977e-06
2	1	0	1	0	0	310.591	0.558885	0.558609	0.000518441	1	0.00250676	11	0	78.1738	2.89606e-07
2	1	0	1	0	0	323.673	0.493476	0.49321	0.000222207	1	0.00250845	11	0	0.1997	1.09595e-07
2	1	0	1	0	1	336.612	0.471256	0.471036	0.00119919	2	0.00251394	11	0	4.2763	5.64863e-07
2	1	0	1	0	1	349.694	0.536666	0.536385	0.0012745	2	0.00253142	11	0	17.3582	6.83622e-07
2	1	0	1	0	1	362.776	0.602075	0.60185	0.00259248	2	0.0025531	11	0	30.44	1.56028e-06
2	1	0	1	0	1	375.858	0.667484	0.667277	0.0761995	2	0.0028522	11	0	43.5219	5.08462e-05
2	1	0	1	0	1	388.712	0.668233	0.668011	0.0864704	2	0.004735	11	0	56.3763	5.77631e-05
2	1	0	1	0	1	401.794	0.602823	0.602586	0.00210719	2	0.00508846	11	0	69.4582	1.26977e-06
2	0	0	1	0	1	414.876	0.537415	0.537158	0.000263432	2	0.00509521	11	0	82.54	1.41505e-07
2	0	0	1	0	1	427.958	0.472005	0.471727	9.53078e-05	2	0.0050959	11	0	0.0999	4.49592e-08
2	0	0	1	0	0	440.897	0.492727	0.492499	0.00119325	3	0.00510692	11	0	8.5704	5.87675e-07
2	1	0	1	0	0	453.979	0.558136	0.557899	0.0012313	3	0.00512473	11	0	21.6522	6.8694e-07
2	1	0	1	0	0	467.061	0.623545	0.623334	0.00744443	3	0.00516002	11	0	34.7341	4.64037e-06
2	1	0	1	0	0	480.143	0.688955	0.688726	0.167496	3	0.00595474	11	0	47.816	0.000115359
2	1	0	1	0	0	492.997	0.646762	0.646576	0.0346385	3	0.00761276	11	0	60.6704	2.23965e-05
2	1	0	1	0	0	506.079	0.581354	0.58111	0.000694555	3	0.00772404	11	0	73.7522	4.03613e-07
2	0	0	1	0	0	519.161	0.515944	0.515697	0.000176739	3	0.0077263	11	0	0.000000000000000E+000	9.11438e-08
2	0	0	0	0	0	532.243	0.450535	0.45036	2.98583e-05	3	0.00772596	11	0	0.1997	1.3447e-08
2	0	0	1	0	1	545.182	0.514197	0.513961	0.00125762	4	0.00774262	11	0	12.8644	6.46365e-07
2	1	0	1	0	1	558.264	0.579606	0.579417	0.00152124	4	0.00776134	11	0	25.9463	8.8143e-07
2	1	0	0	0	1	571.346	0.645015	0.644797	0.0261761	4	0.00785522	11	0	39.0281	1.68783e-05
2	1	0	0	0	1	584.2	0.690702	0.690495	0.179628	4	0.00940854	11	0	51.8825	0.000124032
2	1	0	1	0	1	597.282	0.625292	0.625049	0.00957486	4	0.0103297	11	0	64.9644	5.98476e-06
2	1	0	1	0	1	610.364	0.559884	0.559656	0.000369414	4	0.0103571	11	0	78.0462	2.06745e-07
2	0	0	0	0	1	623.446	0.494474	0.494203	0.000282099	4	0.0103587	11	0	0.0999	1.39414e-07
2	0	0	1	0	0	636.385	0.470258	0.470064	0.00112719	5	0.0103641	11	0	3.9945	5.29852e-07
2	1	0	1	0	0	649.467	0.535666	0.535417	0.0012237	5	0.0103818	11	0	17.0763	6.55187e-07
2	1	0	0	0	0	662.549	0.601076	0.600844	0.00245158	5	0.0104032	11	0	30.1582	1.47302e-06
2	1	0	1	0	0	675.63	0.666486	0.666207	0.0748105	5	0.0106927	11	0	43.2401	4.98393e-05
2	1	0	1	0	0	688.485	0.669231	0.669029	0.0916029	5	0.0126261	11	0	56.0945	6.1285e-05
2	1	0	1	0	0	701.567	0.603823	0.603618	0.00221533	5	0.0130015	11	0	69.1763	1.33721e-06
2	1	0	0	0	0	714.649	0.538413	0.53818	0.000246463	5	0.0130087	11	0	82.2582	1.32642e-07
2	1	0	1	0	0	727.73	0.473004	0.472771	0.000115122	5	0.0130095	11	0	0.0999	5.44262e-08
2	0	0	1	0	1	740.67	0.491728	0.491524	0.00115076	6	0.0130203	11	0	8.2885	5.65627e-07
2	0	0	0	0	1	753.752	0.557137	0.556903	0.00127518	6	0.013038	11	0	21.3704	7.1015e-07
2	1	0	1	0	1	766.833	0.622547	0.622331	0.0069725	6	0.0130716	11	0	34.4523	4.3392e-06
2	1	0	1	0	1	779.915	0.687956	0.687736	0.164919	6	0.0138432	11	0	47.5341	0.000113421
2	1	0	1	0	1	792.77	0.647762	0.647548	0.036281	6	0.0155456	11	0	60.3885	2.34937e-05
2	1	0	0	0	1	805.852	0.582352	0.5821	0.00069382	6	0.0156625	11	0	73.4704	4.03873e-07
2	1	0	1	0	1	818.933	0.516942	0.516743	0.000248196	6	0.0156657	11	0	0.8988	1.28253e-07
2	1	0	1	0	1	832.015	0.451534	0.451307	7.11797e-05	6	0.0156662	11	0	0.0998	3.21239e-08
2	1	0	0	0	0	844.955	0.513198	0.512977	0.00122055	7	0.0156828	11	0	12.5826	6.26112e-07
2	1	0	1	0	0	858.036	0.578607	0.578328	0.0015519	7	0.0157013	11	0	25.6644	8.97506e-07
2	1	0	1	0	0	871.118	0.644017	0.643801	0.0246529	7	0.0157895	11	0	38.7463	1.58716e-05
2	1	0	1	0	0	883.973	0.691701	0.691479	0.189085	7	0.0173358	11	0	51.6007	0.000130748
2	1	0	0	0	0	897.055	0.626291	0.626067	0.010118	7	0.018305	11	0	64.6826	6.33457e-06
2	0	0	1	0	0	910.136	0.560882	0.560669	0.000372176	7	0.0183337	11	0	77.7644	2.08668e-07
2	1	0	1	0	0	923.218	0.495473	0.495291	0.000104111	7	0.0183354	11	0	0.000000000000000E+000	5.15652e-08
2	1	0	1	0	1	936.157	0.469259	0.469014	0.00123598	8	0.0183405	11	0	3.8768	5.79691e-07
2	0	0	1	0	1	949.239	0.534668	0.53445	0.00115274	8	0.0183583	11	0	16.9587	6.16079e-07
2	1	0	1	0	1	962.321	0.600078	0.599857	0.00239919	8	0.0183797	11	0	30.0406	1.43917e-06
2	1	0	1	0	1	975.403	0.665486	0.665254	0.0723075	8	0.0186551	11	0	43.1224	4.81029e-05
2	1	0	1	0	1	988.257	0.670231	0.669978	0.0968708	8	0.0206187	11	0	55.9768	6.49013e-05
2	1	0	1	0	1	1001.34	0.604821	0.604622	0.00223682	8	0.0210151	11	0	69.0587	1.35243e-06
2	1	0	1	0	1	1014.42	0.539411	0.539185	0.00027509	8	0.0210228	11	0	82.1406	1.48324e-07
2	0	0	1	0	1	1027.5	0.474003	0.473729	7.79865e-05	8	0.0210235	11	0	0.0998	3.69445e-08
2	1	0	1	0	0	1040.44	0.490729	0.490488	0.00126052	9	0.0210342	11	0	8.0888	6.18272e-07
2	1	0	1	0	0	1053.52	0.556139	0.555945	0.00126636	9	0.021052	11	0	21.1707	7.04024e-07
2	1	0	1	0	0	1066.61	0.621548	0.621308	0.00644584	9	0.0210843	11	0	34.2525	4.00485e-06
2	1	0	1	0	0	1079.69	0.686957	0.686761	0.163307	9	0.0218346	11	0	47.3344	0.000112153
2	1	0	1	0	0	1092.54	0.64876	0.648513	0.0382866	9	0.0235996	11	0	60.1888	2.48294e-05
2	0	0	1	0	0	1105.62	0.58335	0.583102	0.00070174	9	0.0237236	11	0	73.2707	4.09186e-07
2	0	0	1	0	0	1118.71	0.517942	0.517729	0.000221465	9	0.023727	11	0	86.3525	1.14659e-07
2	0	0	1	0	0	1131.79	0.452532	0.452302	0.000152	9	0.0237272	11	0	0.000000000000000E+000	6.87501e-08
2	1	0	1	0	1	1144.73	0.5122	0.511948	0.00119028	10	0.0237434	11	0	12.3829	6.09361e-07
2	1	0	1	0	1	1157.81	0.577609	0.577354	0.00144494	10	0.0237616	11	0	25.4647	8.34241e-07
2	1	0	1	0	1	1170.89	0.643018	0.642828	0.0234051	10	0.023845	11	0	38.5466	1.50455e-05
2	1	0	1	0	1	1183.75	0.692699	0.692487	0.197817	10	0.025385	11	0	51.401	0.000136986
2	1	0	1	0	1	1196.83	0.627289	0.627057	0.0106917	10	0.0264075	11	0	64.4829	6.70429e-06
2	0	0	1	0	1	1209.91	0.561881	0.561639	0.00033092	10	0.0264372	11	0	77.5647	1.85858e-07
2	0	0	1	0	1	1222.99	0.496471	0.496262	0.000159363	10	0.0264395	11	0	0.000000000000000E+000	7.90859e-08
2	0	0	0	0	0	1235.93	0.46826	0.468031	0.00124934	11	0.0264449	11	0	3.595	5.84729e-07
2	1	0	1	0	0	1249.01	0.53367	0.533472	0.00130175	11	0.0264631	11	0	16.6769	6.94446e-07
2	1	0	1	0	0	1262.09	0.599079	0.598872	0.00230915	11	0.0264847	11	0	29.7587	1.38288e-06
2	1	0	0	0	0	1275.18	0.664488	0.66424	0.070438	11	0.0267491	11	0	42.8406	4.67878e-05
2	1	0	0	0	0	1288.03	0.671229	0.671031	0.101967	11	0.0287475	11	0	55.695	6.84233e-05
2	1	0	1	0	0	1301.11	0.60582	0.605582	0.00237552	11	0.0291671	11	0	68.7769	1.43857e-06
2	1	0	1	0	0	1314.19	0.540411	0.540187	0.00041149	11	0.0291756	11	0	81.8587	2.22281e-07
2	1	0	0	0	0	1327.28	0.475001	0.474745	0.000130722	11	0.0291772	11	0	0.0999	6.20598e-08
2	0	0	1	0	1	1340.22	0.489731	0.489513	0.00122119	12	0.0291879	11	0	7.9437	5.9779e-07
2	0	0	1	0	1	1353.3	0.55514	0.554915	0.00137184	12	0.029206	11	0	21.0255	7.61257e-07
2	1	0	0	0	1	1366.38	0.620549	0.620311	0.00618122	12	0.0292377	11	0	34.1074	3.83428e-06
2	1	0	1	0	1	1379.46	0.685959	0.685744	0.161265	12	0.0299691	11	0	47.1893	0.000110586
2	1	0	1	0	1	1392.32	0.649759	0.649523	0.0410591	12	0.0317917	11	0	60.0437	2.66688e-05
2	1	0	1	0	1	1405.4	0.58435	0.584109	0.000755886	12	0.0319243	11	0	73.1255	4.4152e-07
2	0	0	0	0	1	1418.48	0.51894	0.518724	0.000364634	12	0.031928	11	0	86.2074	1.89145e-07
2	1	0	1	0	1	1431.56	0.45353	0.453338	0.00017799	12	0.0319293	11	0	0.0999	8.06894e-08
2	0	0	1	0	0	1444.5	0.511201	0.510947	0.00125206	13	0.0319465	11	0	12.2652	6.39737e-07
2	1	0	0	0	0	1457.58	0.57661	0.576394	0.00149665	13	0.0319657	11	0	25.3471	8.62657e-07
2	1	0	1	0	0	1470.66	0.64202	0.641772	0.0222972	13	0.0320456	11	0	38.429	1.43097e-05
2	1	0	1	0	0	1483.52	0.693698	0.693462	0.209338	13	0.0335828	11	0	51.2834	0.000145168
2	1	0	1	0	0	1496.6	0.628289	0.628032	0.0114119	13	0.0346682	11	0	64.3652	7.16703e-06
2	1	0	0	0	0	1509.68	0.562879	0.562605	0.000482143	13	0.0347007	11	0	77.4471	2.71256e-07
2	0	0	1	0	0	1522.76	0.497469	0.497214	0.000203171	13	0.034703	11	0	0.000000000000000E+000	1.01019e-07
2	0	0	1	0	1	1535.7	0.467262	0.467017	0.00111975	14	0.0347074	11	0	3.4499	5.22943e-07
2	0	0	0	0	1	1548.78	0.532671	0.532448	0.00115656	14	0.0347248	11	0	16.5318	6.15811e-07
2	1	0	1	0	1	1561.87	0.598081	0.597901	0.00221691	14	0.0347453	11	0	29.6137	1.3255e-06
2	1	0	1	0	1	1574.95	0.66349	0.663286	0.06843	14	0.0349983	11	0	42.6955	4.53887e-05
2	1	0	1	0	1	1587.8	0.672228	0.67197	0.107908	14	0.0370316	11	0	55.5499	7.25111e-05
2	1	0	0	0	1	1600.88	0.606818	0.606579	0.00247124	14	0.0374765	11	0	68.6318	1.499e-06
2	0	0	1	0	1	1613.97	0.541409	0.541142	0.000293348	14	0.0374839	11	0	81.7136	1.58743e-07
2	0	0	1	0	1	1627.05	0.476	0.475748	0.000153639	14	0.0374845	11	0	0.000000000000000E+000	7.30933e-08
2	1	0	1	0	0	1639.99	0.488732	0.488496	0.00116974	15	0.0374945	11	0	7.6893	5.71412e-07
2	1	0	1	0	0	1653.07	0.554141	0.553921	0.00126219	15	0.0375121	11	0	20.7712	6.99155e-07
2	1	0	1	0	0	1666.15	0.619551	0.619281	0.00573477	15	0.037542	11	0	33.8531	3.55144e-06
2	1	0	1	0	0	1679.23	0.68496	0.684769	0.159406	15	0.0382553	11	0	46.9349	0.000109157
2	1	0	1	0	0	1692.09	0.650758	0.650555	0.0435152	15	0.0401456	11	0	59.7893	2.8309e-05
2	1	0	1	0	0	1705.17	0.585348	0.585145	0.000715981	15	0.0402856	11	0	72.8712	4.18953e-07
2	1	0	1	0	0	1718.25	0.519939	0.519733	0.000160809	15	0.0402881	11	0	0.0999	8.35776e-08
2	0	0	1	0	0	1731.33	0.45453	0.454256	2.37252e-05	15	0.0402882	11	0	0.0998	1.07773e-08
2	1	0	1	0	0	1732.23	0.450011	0.449792	0.00024503	15	0.0402881	11	0	0.0271	1.10213e-07