File: ACS_Catal_2026/Figures_Na_K/main_figures/data/EC/20251112_2-148_alpha_reproducibility/20251112_2-148_004_Na_first_2_K1_03_CVA_C02.mpt
EC-Lab ASCII FILE
Nb header lines : 66

Cyclic Voltammetry Advanced

Run on channel : 2 (SN 69290)
User :
CE vs. WE compliance from -10 V to 10 V
Electrode connection : standard
Potential control : Ewe
Ewe ctrl range : min = -1.00 V, max = 1.00 V
Safety Limits :
	Do not start on E overload
Acquisition started on : 11/12/2025 16:20:32.186
Loaded Setting File :  C:\Users\User\Documents\EC-Lab\Data\Yatsuzuka\20251112_2-148_alpha_reproducibility\20251112_2-148_002_alpha_reproducibility_2_K1.mps
Saved on :
	File : 20251112_2-148_004_Na_first_2_K1_03_CVA_C02.mpr
	Directory : C:\Users\User\Documents\EC-Lab\Data\Yatsuzuka\20251112_2-148_alpha_reproducibility\
	Host : 192.109.209.127
Device : SP-150e (SN .003883)
Address : 192.109.209.128
EC-Lab for windows v11.52 (software)
Internet server v11.52 (firmware)
Command interpretor v11.50 (firmware)
Electrode material :
Initial state :
Electrolyte :
Comments :
Electrode surface area : 0.001 cm2
Characteristic mass : 0.001 g
Equivalent Weight : 0.000 g/eq.
Density : 0.000 g/cm3
Volume (V) : 0.001 cm3
Cycle Definition : Charge/Discharge alternance
Ei (V)              0.450
vs.                 Ref
ti (h:m:s)          0:00:10.0000
dti (s)             0.0000
dE/dt               5.000
dE/dt unit          mV/s
E1 (V)              0.700
vs.                 Ref
t1 (h:m:s)          0:00:0.0000
dt1 (s)             0.1000
Step percent        50
N                   10
E range min (V)     -1.000
E range max (V)     1.000
I Range             10 mA
I Range min         Unset
I Range max         Unset
I Range init        Unset
Bandwidth           5
E2 (V)              0.450
vs.                 Ref
t2 (h:m:s)          0:00:0.0000
dt2 (s)             0.1000
nc cycles           14
nr                  1
Reverse Scan        0
Ef (V)              0.000
vs.                 Eoc
tf (h:m:s)          0:00:0.0000
dtf (s)             0.1000

mode	ox/red	error	control changes	Ns changes	counter inc.	time/s	control/V	Ewe/V	<I>/mA	cycle number	(Q-Qo)/C	I Range	Ns	step time/s	P/W
2	1	0	1	0	0	232.052	0.450021	0.449535	0.0212069	1	0.0000000E+000	11	0	0.000000000000000E+000	9.53322e-06
2	1	0	0	0	0	244.792	0.51372	0.513263	0.0149737	1	0.000176488	11	0	12.685	7.68544e-06
2	1	0	0	0	0	257.577	0.577644	0.577142	0.0273522	1	0.000394019	11	0	25.4698	1.57861e-05
2	1	0	1	0	0	270.362	0.641569	0.641112	0.226753	1	0.00145804	11	0	38.2547	0.000145374
2	1	0	0	0	0	282.898	0.695754	0.695345	1.50904	1	0.0125468	11	0	50.7902	0.0010493
2	1	0	0	0	0	295.682	0.63183	0.631414	0.114497	1	0.0200233	11	0	63.575	7.22948e-05
2	0	0	0	0	0	308.467	0.567906	0.567482	-0.00131757	1	0.0204273	11	0	0.2996	-7.47698e-07
2	1	0	1	0	0	321.252	0.503981	0.503551	-0.00634065	1	0.0203374	11	0	12.5851	-3.19284e-06
2	1	0	1	0	1	333.806	0.458835	0.458394	0.01405	2	0.0202442	11	0	1.753	6.44044e-06
2	1	0	1	0	1	346.591	0.522759	0.522313	0.0161811	2	0.0204088	11	0	14.5378	8.45159e-06
2	1	0	1	0	1	359.376	0.586684	0.586255	0.0258597	2	0.0206265	11	0	27.3227	1.51604e-05
2	1	0	1	0	1	372.161	0.650607	0.650167	0.315527	2	0.0220358	11	0	40.1075	0.000205145
2	1	0	1	0	1	384.686	0.686765	0.686307	0.998161	2	0.0341603	11	0	52.633	0.000685045
2	1	0	1	0	1	397.471	0.62284	0.622376	0.0709508	2	0.0389963	11	0	65.4179	4.41581e-05
2	1	0	1	0	1	410.256	0.558916	0.558409	-0.00187946	2	0.0392093	11	0	2.2973	-1.04951e-06
2	1	0	0	0	1	423.041	0.494992	0.49453	-0.00738134	2	0.0391073	11	0	15.0822	-3.6503e-06
2	1	0	1	0	0	435.595	0.467825	0.467372	0.013111	3	0.0390538	11	0	3.4959	6.12771e-06
2	1	0	1	0	0	448.38	0.531748	0.531342	0.0149216	3	0.0392169	11	0	16.2807	7.92849e-06
2	1	0	1	0	0	461.165	0.595673	0.595189	0.0367794	3	0.0394602	11	0	29.0656	2.18907e-05
2	1	0	1	0	0	473.95	0.659597	0.659127	0.440086	3	0.0414303	11	0	41.8504	0.000290072
2	1	0	1	0	0	486.475	0.677775	0.677353	0.754975	3	0.0543111	11	0	54.3759	0.000511385
2	1	0	1	0	0	499.26	0.613852	0.613428	0.0419221	3	0.0576796	11	0	67.1607	2.57162e-05
2	0	0	1	0	0	512.045	0.549927	0.549516	-0.00727089	3	0.0577779	11	0	3.6956	-3.99547e-06
2	0	0	1	0	0	524.83	0.486003	0.48554	-0.0115874	3	0.0576675	11	0	16.4804	-5.62613e-06
2	1	0	1	0	1	537.384	0.476813	0.476339	0.013718	4	0.0576544	11	0	5.2937	6.53441e-06
2	1	0	0	0	1	550.169	0.540738	0.54028	0.0132174	4	0.0578178	11	0	18.0786	7.14109e-06
2	1	0	0	0	1	562.954	0.604662	0.604215	0.0455941	4	0.0581049	11	0	30.8634	2.75487e-05
2	1	0	1	0	1	575.739	0.668587	0.66813	0.607933	4	0.0608938	11	0	43.6483	0.000406178
2	1	0	0	0	1	588.264	0.668786	0.668322	0.534601	4	0.0737512	11	0	56.1738	0.000357286
2	1	0	0	0	1	601.049	0.604862	0.604416	0.0224156	4	0.0760874	11	0	68.9586	1.35483e-05
2	0	0	1	0	1	613.834	0.540937	0.540459	-0.00957599	4	0.0761147	11	0	6.1927	-5.17543e-06
2	1	0	1	0	1	626.619	0.477013	0.476565	-0.00765898	4	0.0759984	11	0	18.9775	-3.65e-06
2	1	0	1	0	0	639.173	0.485803	0.485331	0.0155061	5	0.0760268	11	0	7.0916	7.52557e-06
2	1	0	1	0	0	651.958	0.549728	0.549309	0.015645	5	0.076191	11	0	19.8765	8.59394e-06
2	1	0	1	0	0	664.743	0.613651	0.613172	0.0615512	5	0.0765456	11	0	32.6613	3.77415e-05
2	1	0	1	0	0	677.527	0.677575	0.677098	0.850217	5	0.0805403	11	0	45.4461	0.00057568
2	1	0	1	0	0	690.053	0.659797	0.659374	0.387422	5	0.0934073	11	0	57.9716	0.000255456
2	1	0	1	0	0	702.838	0.595872	0.595401	0.0152894	5	0.0950042	11	0	70.7565	9.10333e-06
2	0	0	1	0	0	715.623	0.531948	0.531482	-0.00691582	5	0.0949828	11	0	7.4911	-3.67564e-06
2	0	0	0	0	0	728.408	0.468024	0.467578	-0.0132938	5	0.0948606	11	0	20.276	-6.21588e-06
2	1	0	1	0	1	740.962	0.494793	0.494292	0.0131481	6	0.0949299	11	0	8.8895	6.499e-06
2	1	0	1	0	1	753.747	0.558716	0.558265	0.0150435	6	0.0950979	11	0	21.6743	8.39825e-06
2	1	0	1	0	1	766.532	0.622641	0.622201	0.0899462	6	0.0955576	11	0	34.4592	5.59646e-05
2	1	0	1	0	1	779.316	0.686565	0.686142	1.12204	6	0.101135	11	0	47.244	0.000769877
2	1	0	1	0	1	791.842	0.650807	0.650352	0.261157	6	0.112514	11	0	59.7695	0.000169844
2	1	0	1	0	1	804.627	0.586884	0.586433	0.00834513	6	0.113529	11	0	72.5543	4.89385e-06
2	0	0	1	0	1	817.412	0.522959	0.522494	-0.00962858	6	0.113476	11	0	9.3889	-5.03088e-06
2	1	0	1	0	1	830.196	0.459035	0.458553	-0.00802307	6	0.113349	11	0	22.1737	-3.67901e-06
2	1	0	1	0	0	842.751	0.503781	0.503337	0.0148825	7	0.113461	11	0	10.7423	7.49091e-06
2	1	0	0	0	0	855.536	0.567706	0.567248	0.0193727	7	0.113634	11	0	23.5272	1.09891e-05
2	1	0	0	0	0	868.32	0.63163	0.631146	0.12615	7	0.114252	11	0	36.312	7.96192e-05
2	1	0	1	0	0	881.105	0.695555	0.695106	1.42368	7	0.121804	11	0	49.0969	0.000989606
2	1	0	0	0	0	893.631	0.641818	0.641397	0.16945	7	0.131157	11	0	61.6224	0.000108684
2	1	0	0	0	0	906.416	0.577894	0.577471	0.00347965	7	0.131781	11	0	0.000000000000000E+000	2.0094e-06
2	1	0	1	0	0	919.2	0.513969	0.513505	-0.0064093	7	0.131706	11	0	11.0869	-3.29121e-06
2	0	0	1	0	0	931.96	0.45017	0.449682	-0.00929875	7	0.131576	11	0	23.8468	-4.18148e-06
2	1	0	1	0	1	944.54	0.512771	0.512332	0.0115065	8	0.13173	11	0	12.4852	5.89516e-06
2	1	0	1	0	1	957.324	0.576696	0.576239	0.0182282	8	0.131915	11	0	25.2701	1.05038e-05
2	1	0	1	0	1	970.109	0.640619	0.640121	0.189704	8	0.132773	11	0	38.0549	0.000121433
2	1	0	1	0	1	982.635	0.696753	0.696334	1.39735	8	0.142287	11	0	50.5804	0.000973022
2	1	0	1	0	1	995.42	0.632829	0.632376	0.106445	8	0.149181	11	0	63.3652	6.73132e-05
2	1	0	1	0	1	1008.2	0.568904	0.568431	-0.00123033	8	0.149549	11	0	0.3995	-6.99357e-07
2	1	0	1	0	1	1020.99	0.504981	0.504509	-0.00832378	8	0.14946	11	0	13.1843	-4.19942e-06
2	1	0	0	0	0	1033.54	0.457836	0.457365	0.0106629	9	0.149364	11	0	1.4982	4.87684e-06
2	1	0	1	0	0	1046.33	0.521761	0.521329	0.0143143	9	0.149522	11	0	14.2831	7.46245e-06
2	1	0	1	0	0	1059.11	0.585684	0.585259	0.0251751	9	0.149723	11	0	27.0679	1.47339e-05
2	1	0	1	0	0	1071.9	0.649609	0.649166	0.275722	9	0.150943	11	0	39.8528	0.000178989
2	1	0	1	0	0	1084.42	0.687763	0.687302	1.00136	9	0.162196	11	0	52.3783	0.000688237
2	1	0	1	0	0	1097.21	0.623839	0.623411	0.0697016	9	0.167108	11	0	65.1631	4.34527e-05
2	1	0	1	0	0	1109.99	0.559916	0.559446	-0.00233427	9	0.167311	11	0	1.8977	-1.3059e-06
2	1	0	1	0	0	1122.78	0.495991	0.495556	-0.00788613	9	0.167211	11	0	14.6826	-3.90802e-06
2	1	0	1	0	1	1135.33	0.466825	0.466406	0.0150323	10	0.167153	11	0	3.2961	7.01115e-06
2	0	0	1	0	1	1148.12	0.530749	0.53028	0.0102024	10	0.167312	11	0	16.0809	5.41011e-06
2	1	0	0	0	1	1160.9	0.594674	0.594205	0.033145	10	0.167538	11	0	28.8658	1.96949e-05
2	1	0	0	0	1	1173.69	0.658598	0.658171	0.396385	10	0.169291	11	0	41.6506	0.000260889
2	1	0	1	0	1	1186.21	0.678774	0.678326	0.74297	10	0.181343	11	0	54.1761	0.000503976
2	1	0	0	0	1	1199	0.61485	0.614403	0.0429738	10	0.184732	11	0	66.961	2.64032e-05
2	0	0	0	0	1	1211.78	0.550926	0.550447	-0.00573609	10	0.184826	11	0	3.8954	-3.15741e-06
2	0	0	1	0	1	1224.57	0.487001	0.486493	-0.0103522	10	0.184717	11	0	16.6803	-5.03629e-06
2	1	0	1	0	0	1237.12	0.475815	0.475351	0.0129929	11	0.1847	11	0	5.094	6.17618e-06
2	1	0	1	0	0	1249.91	0.539739	0.539336	0.0154221	11	0.184859	11	0	17.8788	8.31769e-06
2	1	0	1	0	0	1262.69	0.603664	0.603208	0.0422074	11	0.185125	11	0	30.6637	2.54599e-05
2	1	0	1	0	0	1275.48	0.667587	0.667123	0.561509	11	0.187665	11	0	43.4485	0.000374596
2	1	0	1	0	0	1288	0.669785	0.66932	0.548696	11	0.200078	11	0	55.974	0.000367253
2	1	0	1	0	0	1300.79	0.605861	0.605382	0.0248296	11	0.202429	11	0	68.7588	1.50314e-05
2	0	0	1	0	0	1313.57	0.541936	0.541501	-0.00731389	11	0.202452	11	0	5.893	-3.96047e-06
2	1	0	1	0	0	1326.36	0.478013	0.477527	-0.0075643	11	0.202337	11	0	18.6778	-3.61216e-06
2	0	0	0	0	1	1338.91	0.484804	0.484322	0.00949863	12	0.20236	11	0	6.8918	4.6004e-06
2	1	0	1	0	1	1351.7	0.548729	0.548271	0.0159143	12	0.202521	11	0	19.6767	8.72537e-06
2	1	0	1	0	1	1364.48	0.612652	0.612204	0.0560191	12	0.202848	11	0	32.4615	3.42952e-05
2	1	0	1	0	1	1377.26	0.676577	0.676108	0.768752	12	0.206461	11	0	45.2464	0.000519759
2	1	0	1	0	1	1389.79	0.660795	0.660342	0.378163	12	0.218424	11	0	57.7719	0.000249717
2	1	0	1	0	1	1402.58	0.596871	0.596429	0.0134343	12	0.219968	11	0	70.5567	8.0126e-06
2	0	0	1	0	1	1415.36	0.532947	0.532446	-0.0100373	12	0.219946	11	0	7.6909	-5.3443e-06
2	1	0	1	0	1	1428.14	0.469023	0.468546	-0.00789017	12	0.219827	11	0	20.4757	-3.69691e-06
2	0	0	1	0	0	1440.7	0.493793	0.49335	0.00987743	13	0.219891	11	0	8.6897	4.87302e-06
2	1	0	1	0	0	1453.48	0.557717	0.557288	0.0137853	13	0.220055	11	0	21.4745	7.68236e-06
2	1	0	0	0	0	1466.27	0.621642	0.621177	0.0807449	13	0.220476	11	0	34.2594	5.01569e-05
2	1	0	1	0	0	1479.05	0.685567	0.685096	1.03969	13	0.225605	11	0	47.0443	0.000712285
2	1	0	1	0	0	1491.58	0.651807	0.651312	0.258056	13	0.236489	11	0	59.5697	0.000168075
2	1	0	0	0	0	1504.36	0.587882	0.5874	0.00818237	13	0.237483	11	0	72.3546	4.80632e-06
2	0	0	0	0	0	1517.15	0.523958	0.523539	-0.0103552	13	0.23743	11	0	9.4887	-5.42136e-06
2	0	0	1	0	0	1529.93	0.460033	0.459568	-0.0092768	13	0.237306	11	0	22.2736	-4.26332e-06
2	1	0	1	0	1	1542.49	0.502783	0.502319	0.0144384	14	0.237411	11	0	10.4876	7.2527e-06
2	1	0	1	0	1	1555.27	0.566707	0.566272	0.0146576	14	0.237581	11	0	23.2724	8.30022e-06
2	1	0	1	0	1	1568.06	0.630632	0.630204	0.116344	14	0.238145	11	0	36.0573	7.33205e-05
2	1	0	1	0	1	1580.84	0.694555	0.694112	1.3167	14	0.245188	11	0	48.8421	0.000913938
2	1	0	1	0	1	1593.37	0.642817	0.642376	0.170694	14	0.254265	11	0	61.3676	0.000109649
2	1	0	1	0	1	1606.15	0.578892	0.578442	0.00324114	14	0.254883	11	0	0.000000000000000E+000	1.87481e-06
2	0	0	1	0	1	1618.94	0.514968	0.51449	-0.0113379	14	0.254809	11	0	11.6862	-5.83324e-06
2	0	0	1	0	1	1631.72	0.451045	0.450537	-0.0108741	14	0.254681	11	0	24.471	-4.89917e-06
2	0	0	0	0	0	1644.28	0.511772	0.511319	0.011292	15	0.254829	11	0	12.3404	5.77382e-06
2	1	0	1	0	0	1657.06	0.575696	0.575226	0.0203911	15	0.255008	11	0	25.1253	1.17295e-05
2	1	0	1	0	0	1669.85	0.63962	0.639212	0.170602	15	0.255791	11	0	37.9101	0.000109051
2	1	0	0	0	0	1682.37	0.697752	0.697318	1.41805	15	0.264794	11	0	50.4356	0.000988829
2	1	0	1	0	0	1695.16	0.633827	0.633373	0.106737	15	0.272028	11	0	63.2205	6.76043e-05
2	1	0	1	0	0	1707.94	0.569903	0.569478	-0.000458254	15	0.272394	11	0	0.5993	-2.60965e-07
2	1	0	1	0	0	1720.73	0.505979	0.505525	-0.00768436	15	0.272307	11	0	13.3842	-3.88464e-06
2	0	0	0	0	0	1731.92	0.450021	0.449649	-0.0252481	15	0.272193	11	0	24.575	-1.13528e-05