File: ACS_Catal_2026/Figures_Na_K/main_figures/data/EC/20251112_2-148_alpha_reproducibility/20251112_2-148_005_gamma_reproducibility_K2_02_PEIS_C01.mpt
EC-Lab ASCII FILE
Nb header lines : 63

Potentio Electrochemical Impedance Spectroscopy

Run on channel : 1 (SN 69187)
User :
CE vs. WE compliance from -10 V to 10 V
Electrode connection : standard
Potential control : Ewe
Ewe ctrl range : min = -1.00 V, max = 1.00 V
Safety Limits :
	Do not start on E overload
Acquisition started on : 11/12/2025 20:19:02.947
Loaded Setting File :  C:\Users\User\Documents\EC-Lab\Data\Yatsuzuka\20251030_2-147_gamma_reproducibility\20251030_2-147_001_gamma1_K_1.mps
Saved on :
	File : 20251112_2-148_005_gamma_reproducibility_K2_02_PEIS_C01.mpr
	Directory : C:\Users\User\Documents\EC-Lab\Data\Yatsuzuka\20251112_2-148_alpha_reproducibility\
	Host : 192.109.209.127
Device : SP-150e (SN .003883)
Address : 192.109.209.128
EC-Lab for windows v11.52 (software)
Internet server v11.52 (firmware)
Command interpretor v11.50 (firmware)
Electrode material :
Initial state :
Electrolyte :
Comments :
Electrode surface area : 0.001 cm2
Characteristic mass : 0.001 g
Equivalent Weight : 0.000 g/eq.
Density : 0.000 g/cm3
Volume (V) : 0.001 cm3
Cycle Definition : Charge/Discharge alternance
Mode                Single sine
E (V)               0.4500
vs.                 Ref
tE (h:m:s)          0:00:0.0000
record              0
dI                  0.000
unit dI             mA
dt (s)              0.000
fi                  500.000
unit fi             kHz
ff                  1.000
unit ff             Hz
Nd                  6
Points              per decade
spacing             Logarithmic
Va (mV)             10.0
pw                  0.10
Na                  2
corr                0
E range min (V)     -1.000
E range max (V)     1.000
I Range             Auto
Bandwidth           5
nc cycles           0
goto Ns'            0
nr cycles           0
inc. cycle          0

freq/Hz	Re(Z)/Ohm	-Im(Z)/Ohm	|Z|/Ohm	Phase(Z)/deg	time/s	<Ewe>/V	<I>/mA	Cs/uF	Cp/uF	cycle number	I Range	|Ewe|/V	|I|/A	Ns	(Q-Qo)/mA.h	Re(Y)/Ohm-1	Im(Y)/Ohm-1	|Y|/Ohm-1	Phase(Y)/deg	Re(C)/nF	Im(C)/nF	|C|/nF	Phase(C)/deg	Re(M)	Im(M)	|M|	Phase(M)/deg	Re(Permittivity)	Im(Permittivity)	|Permittivity|	Phase(Permittivity)/deg	Re(Resistivity)/Ohm.cm	Im(Resistivity)/Ohm.cm	|Resistivity|/Ohm.cm	Phase(Resistivity)/deg	Re(Conductivity)/mS/cm	Im(Conductivity)/mS/cm	|Conductivity|/mS/cm	Phase(Conductivity)/deg	Tan(Delta)	Loss Angle(Delta)/deg	dq/mA.h
500019	17.9831	-1.48464	18.0443	4.71947	202.26	0.450122	0.00881356	-0.214395	-0.00145135	1	10	0.00603494	0.000334451	0	1.80935e-05	0.0552312	-0.00455973	0.0554191	-4.71947	-1.45135	17.58	17.6398	-94.7195	0.0000000E+000	0.0000000E+000	0.0000000E+000	94.7195	0.0000000E+000	0.0000000E+000	0.0000000E+000	-94.7195	0.0000000E+000	0.0000000E+000	0.0000000E+000	4.71947	0.0000000E+000	0.0000000E+000	0.0000000E+000	-4.71947	12.1128	85.2805	1.80935e-05
231063	10.9355	-0.722861	10.9593	3.78189	202.969	0.44979	0.00980866	-0.952874	-0.00414551	1	10	0.0106874	0.000975192	0	1.94415e-05	0.0910478	-0.00601848	0.0912465	-3.78189	-4.14551	62.7133	62.8502	-93.7819	0.0000000E+000	0.0000000E+000	0.0000000E+000	93.7819	0.0000000E+000	0.0000000E+000	0.0000000E+000	-93.7819	0.0000000E+000	0.0000000E+000	0.0000000E+000	3.78189	0.0000000E+000	0.0000000E+000	0.0000000E+000	-3.78189	15.128	86.2181	1.02423e-06
106786	9.90295	-0.129462	9.90379	0.748989	203.949	0.449752	0.0109864	-11.5123	-0.00196718	1	10	0.0108251	0.00109303	0	2.32181e-05	0.100963	-0.00131989	0.100971	-0.748989	-1.96719	150.476	150.488	-90.749	0.0000000E+000	0.0000000E+000	0.0000000E+000	90.749	0.0000000E+000	0.0000000E+000	0.0000000E+000	-90.749	0.0000000E+000	0.0000000E+000	0.0000000E+000	0.748989	0.0000000E+000	0.0000000E+000	0.0000000E+000	-0.748989	76.4931	89.251	1.59262e-06
49352.4	9.79873	0.0248344	9.79876	-0.145213	204.793	0.449751	0.0111392	129.855	0.000834112	1	10	0.0106034	0.00108212	0	2.41617e-05	0.102053	0.00025865	0.102054	0.145213	0.834095	329.109	329.11	-89.8548	0.0000000E+000	0.0000000E+000	0.0000000E+000	89.8548	0.0000000E+000	0.0000000E+000	0.0000000E+000	-89.8548	0.0000000E+000	0.0000000E+000	0.0000000E+000	-0.145213	0.0000000E+000	0.0000000E+000	0.0000000E+000	0.145213	394.562	89.8548	-2.48936e-07
22806.6	9.79457	0.124235	9.79536	-0.726707	205.637	0.449742	0.0105708	56.1714	0.00903576	1	10	0.0104256	0.00106434	0	2.57814e-05	0.102081	0.00129481	0.102089	0.726707	9.03578	712.369	712.427	-89.2733	0.0000000E+000	0.0000000E+000	0.0000000E+000	89.2733	0.0000000E+000	0.0000000E+000	0.0000000E+000	-89.2733	0.0000000E+000	0.0000000E+000	0.0000000E+000	-0.726707	0.0000000E+000	0.0000000E+000	0.0000000E+000	0.726707	78.8389	89.2733	1.26472e-06
10540.4	9.81113	0.243777	9.81416	-1.42333	206.481	0.449753	0.0116218	61.94	0.0382164	1	10	0.0102603	0.00104546	0	2.6347e-05	0.101862	0.00253096	0.101894	1.42333	38.2164	1538.07	1538.55	-88.5767	0.0000000E+000	0.0000000E+000	0.0000000E+000	88.5767	0.0000000E+000	0.0000000E+000	0.0000000E+000	-88.5767	0.0000000E+000	0.0000000E+000	0.0000000E+000	-1.42333	0.0000000E+000	0.0000000E+000	0.0000000E+000	1.42333	40.2464	88.5767	1.23714e-06
4871.56	9.83367	0.488924	9.84582	-2.84637	207.472	0.449759	0.0125479	66.8207	0.164774	1	10	0.0105778	0.00107435	0	2.80173e-05	0.101441	0.00504356	0.101566	2.84637	164.774	3314.09	3318.18	-87.1536	0.0000000E+000	0.0000000E+000	0.0000000E+000	87.1536	0.0000000E+000	0.0000000E+000	0.0000000E+000	-87.1536	0.0000000E+000	0.0000000E+000	0.0000000E+000	-2.84637	0.0000000E+000	0.0000000E+000	0.0000000E+000	2.84637	20.1129	87.1536	6.8654e-07
2250.72	9.90238	0.94895	9.94775	-5.47396	208.623	0.449764	0.0123467	74.517	0.678098	1	10	0.0101352	0.00101884	0	3.14743e-05	0.100067	0.00958945	0.100525	5.47396	678.097	7076.01	7108.43	-84.526	0.0000000E+000	0.0000000E+000	0.0000000E+000	84.526	0.0000000E+000	0.0000000E+000	0.0000000E+000	-84.526	0.0000000E+000	0.0000000E+000	0.0000000E+000	-5.47396	0.0000000E+000	0.0000000E+000	0.0000000E+000	5.47396	10.4351	84.526	2.23286e-06
1040.33	10.0015	1.93351	10.1867	-10.9415	209.553	0.449766	0.0119349	79.1226	2.85053	1	10	0.0102106	0.00100234	0	3.39792e-05	0.0963824	0.0186328	0.098167	10.9415	2850.53	14745	15018	-79.0585	0.0000000E+000	0.0000000E+000	0.0000000E+000	79.0585	0.0000000E+000	0.0000000E+000	0.0000000E+000	-79.0585	0.0000000E+000	0.0000000E+000	0.0000000E+000	-10.9415	0.0000000E+000	0.0000000E+000	0.0000000E+000	10.9415	5.17273	79.0585	1.17449e-06
480.769	10.1891	3.95705	10.9305	-21.2243	210.483	0.449756	0.0120616	83.6589	10.9642	1	10	0.0102288	0.000935805	0	3.69424e-05	0.0852818	0.0331203	0.0914874	21.2243	10964.2	28231.9	30286.2	-68.7757	0.0000000E+000	0.0000000E+000	0.0000000E+000	68.7757	0.0000000E+000	0.0000000E+000	0.0000000E+000	-68.7757	0.0000000E+000	0.0000000E+000	0.0000000E+000	-21.2243	0.0000000E+000	0.0000000E+000	0.0000000E+000	21.2243	2.57491	68.7757	1.58707e-06
222.061	10.4972	8.15696	13.2939	-37.8493	211.407	0.449754	0.0116162	87.8658	33.0805	1	10	0.0102039	0.000767563	0	4.00515e-05	0.0593977	0.0461555	0.0752225	37.8493	33080.5	42571.4	53913.3	-52.1507	0.0000000E+000	0.0000000E+000	0.0000000E+000	52.1507	0.0000000E+000	0.0000000E+000	0.0000000E+000	-52.1507	0.0000000E+000	0.0000000E+000	0.0000000E+000	-37.8493	0.0000000E+000	0.0000000E+000	0.0000000E+000	37.8493	1.2869	52.1507	1.95434e-06
102.667	11.0609	17.0193	20.2977	-56.9801	212.346	0.449767	0.0116348	91.085	64.0373	1	10	0.0101817	0.000501615	0	4.22042e-05	0.0268469	0.0413091	0.0492666	56.9801	64037.3	41618	76373	-33.0199	0.0000000E+000	0.0000000E+000	0.0000000E+000	33.0199	0.0000000E+000	0.0000000E+000	0.0000000E+000	-33.0199	0.0000000E+000	0.0000000E+000	0.0000000E+000	-56.9801	0.0000000E+000	0.0000000E+000	0.0000000E+000	56.9801	0.649902	33.0199	9.94629e-07
47.4443	12.2889	35.7243	37.7789	-71.0172	213.51	0.449749	0.000329824	93.9014	83.9657	1	11	0.0101962	0.000269891	0	4.32292e-05	0.00861021	0.0250303	0.0264698	71.0172	83965.7	28883.5	88794.7	-18.9828	0.0000000E+000	0.0000000E+000	0.0000000E+000	18.9828	0.0000000E+000	0.0000000E+000	0.0000000E+000	-18.9828	0.0000000E+000	0.0000000E+000	0.0000000E+000	-71.0172	0.0000000E+000	0.0000000E+000	0.0000000E+000	71.0172	0.343991	18.9828	2.57339e-07
21.9144	14.7162	74.9328	76.3642	-78.889	214.378	0.449752	-4.58965e-05	96.921	93.3216	1	11	0.0101767	0.000133266	0	4.33508e-05	0.00252358	0.0128497	0.0130951	78.889	93321.6	18327.6	95104.3	-11.111	0.0000000E+000	0.0000000E+000	0.0000000E+000	11.111	0.0000000E+000	0.0000000E+000	0.0000000E+000	-11.111	0.0000000E+000	0.0000000E+000	0.0000000E+000	-78.889	0.0000000E+000	0.0000000E+000	0.0000000E+000	78.889	0.196392	11.111	2.04856e-07
10.1329	20.1754	158.013	159.296	-82.7237	215.557	0.449766	-4.67122e-05	99.4012	97.8067	1	12	0.0101913	6.39775e-05	0	4.29373e-05	0.000795086	0.00622708	0.00627763	82.7237	97806.7	12488.2	98600.7	-7.27628	0.0000000E+000	0.0000000E+000	0.0000000E+000	7.27628	0.0000000E+000	0.0000000E+000	0.0000000E+000	-7.27628	0.0000000E+000	0.0000000E+000	0.0000000E+000	-82.7237	0.0000000E+000	0.0000000E+000	0.0000000E+000	82.7237	0.127682	7.27628	-6.22965e-07
4.68375	29.3173	330.972	332.268	-84.938	216.407	0.449769	2.43132e-05	102.668	101.869	1	12	0.0101803	3.06388e-05	0	4.32288e-05	0.000265551	0.00299789	0.00300962	84.938	101869	9023.47	102268	-5.06201	0.0000000E+000	0.0000000E+000	0.0000000E+000	5.06201	0.0000000E+000	0.0000000E+000	0.0000000E+000	-5.06201	0.0000000E+000	0.0000000E+000	0.0000000E+000	-84.938	0.0000000E+000	0.0000000E+000	0.0000000E+000	84.938	0.0885794	5.06201	-1.32036e-07
2.16533	48.7701	696.716	698.421	-85.9958	218.633	0.449772	2.43543e-05	105.497	104.983	1	13	0.0101847	1.45825e-05	0	4.31383e-05	9.99815e-05	0.00142831	0.0014318	85.9958	104983	7348.79	105240	-4.00417	0.0000000E+000	0.0000000E+000	0.0000000E+000	4.00417	0.0000000E+000	0.0000000E+000	0.0000000E+000	-4.00417	0.0000000E+000	0.0000000E+000	0.0000000E+000	-85.9958	0.0000000E+000	0.0000000E+000	0.0000000E+000	85.9958	0.07	4.00418	2.41141e-07
1.00006	87.0806	1468.81	1471.39	-86.6071	222.243	0.449767	4.29079e-05	108.349	107.97	1	13	0.010176	6.91591e-06	0	4.338e-05	4.02221e-05	0.000678437	0.000679628	86.6071	107970	6401.14	108159	-3.39289	0.0000000E+000	0.0000000E+000	0.0000000E+000	3.39289	0.0000000E+000	0.0000000E+000	0.0000000E+000	-3.39289	0.0000000E+000	0.0000000E+000	0.0000000E+000	-86.6071	0.0000000E+000	0.0000000E+000	0.0000000E+000	86.6071	0.0592864	3.39288	1.04995e-08