File: ACS_Catal_2026/Figures_Na_K/main_figures/data/EC/20251112_2-148_alpha_reproducibility/20251112_2-148_001_alpha_reproducibility_1_Na1_03_CVA_C01.mpt
EC-Lab ASCII FILE
Nb header lines : 66

Cyclic Voltammetry Advanced

Run on channel : 1 (SN 69187)
User :
CE vs. WE compliance from -10 V to 10 V
Electrode connection : standard
Potential control : Ewe
Ewe ctrl range : min = -1.00 V, max = 1.00 V
Safety Limits :
	Do not start on E overload
Acquisition started on : 11/12/2025 13:54:05.582
Loaded Setting File :  C:\Users\User\Documents\EC-Lab\Data\Yatsuzuka\20251030_2-147_gamma_reproducibility\20251030_2-147_001_gamma1_K_1.mps
Saved on :
	File : 20251112_2-148_001_alpha_reproducibility_1_Na1_03_CVA_C01.mpr
	Directory : C:\Users\User\Documents\EC-Lab\Data\Yatsuzuka\20251112_2-148_alpha_reproducibility\
	Host : 192.109.209.127
Device : SP-150e (SN .003883)
Address : 192.109.209.128
EC-LAB for windows v11.52 (software)
Internet server v11.52 (firmware)
Command interpretor v11.50 (firmware)
Electrode material :
Initial state :
Electrolyte :
Comments :
Electrode surface area : 0.001 cm2
Characteristic mass : 0.001 g
Equivalent Weight : 0.000 g/eq.
Density : 0.000 g/cm3
Volume (V) : 0.001 cm3
Cycle Definition : Charge/Discharge alternance
Ei (V)              0.450
vs.                 Ref
ti (h:m:s)          0:00:10.0000
dti (s)             0.0000
dE/dt               5.000
dE/dt unit          mV/s
E1 (V)              0.700
vs.                 Ref
t1 (h:m:s)          0:00:0.0000
dt1 (s)             0.1000
Step percent        50
N                   10
E range min (V)     -1.000
E range max (V)     1.000
I Range             10 mA
I Range min         Unset
I Range max         Unset
I Range init        Unset
Bandwidth           5
E2 (V)              0.450
vs.                 Ref
t2 (h:m:s)          0:00:0.0000
dt2 (s)             0.1000
nc cycles           14
nr                  1
Reverse Scan        0
Ef (V)              0.000
vs.                 Eoc
tf (h:m:s)          0:00:0.0000
dtf (s)             0.1000

mode	ox/red	error	control changes	Ns changes	counter inc.	time/s	control/V	Ewe/V	<I>/mA	cycle number	(Q-Qo)/C	I Range	Ns	step time/s	Pwe/W	Rwe/Ohm
2	1	0	0	0	0	231.846	0.449961	0.449812	0.00871685	1	0.0000000E+000	11	0	0.000000000000000E+000	3.92094e-06	51602.5
2	1	0	1	0	0	245.882	0.520139	0.519898	0.0144477	1	0.000192558	11	0	13.9806	7.51134e-06	35984.8
2	1	0	1	0	0	259.962	0.590541	0.590364	0.020501	1	0.00041259	11	0	28.061	1.2103e-05	28796.9
2	1	0	1	0	0	274.043	0.660943	0.660721	0.131248	1	0.00115346	11	0	42.1415	8.67186e-05	5034.13
2	1	0	0	0	0	287.906	0.669731	0.669533	0.151227	1	0.00529383	11	0	56.0045	0.000101251	4427.34
2	1	0	1	0	0	301.986	0.599329	0.599093	-0.00219722	1	0.00590367	11	0	0.0999	-1.31634e-06	272660
2	1	0	1	0	0	316.067	0.528926	0.528732	-0.00794267	1	0.005796	11	0	14.1804	-4.19955e-06	66568.6
2	0	0	1	0	0	330.147	0.458523	0.458271	-0.0101939	1	0.00563333	11	0	28.2609	-4.67157e-06	44955.3
2	0	0	1	0	1	344.085	0.511201	0.510986	0.0100355	2	0.00576566	11	0	12.1831	5.12801e-06	50917.8
2	1	0	0	0	1	358.166	0.581603	0.581354	0.0184984	2	0.00595704	11	0	26.2636	1.07541e-05	31427.3
2	1	0	1	0	1	372.246	0.652006	0.651778	0.0860864	2	0.00646664	11	0	40.3441	5.61092e-05	7571.2
2	1	0	1	0	1	386.099	0.678719	0.678509	0.215616	2	0.0102522	11	0	54.1971	0.000146297	3146.84
2	1	0	0	0	1	400.18	0.608316	0.608097	0.00310745	2	0.0111352	11	0	68.2776	1.88963e-06	195690
2	0	0	1	0	1	414.26	0.537913	0.537687	-0.0121372	2	0.011043	11	0	12.6824	-6.52599e-06	44300.9
2	0	0	1	0	1	428.34	0.467512	0.467286	-0.0150745	2	0.0108834	11	0	26.7628	-7.0441e-06	30998.4
2	1	0	1	0	0	442.278	0.502213	0.501951	0.0132821	3	0.0109686	11	0	10.3856	6.66696e-06	37791.6
2	1	0	1	0	0	456.359	0.572616	0.572438	0.0168044	3	0.0111527	11	0	24.4661	9.61946e-06	34064.8
2	1	0	0	0	0	470.439	0.643018	0.642849	0.0625379	3	0.0115398	11	0	38.5466	4.02024e-05	10279.3
2	1	0	1	0	0	484.292	0.687706	0.687504	0.298262	3	0.0148907	11	0	52.3996	0.000205056	2305.03
2	1	0	1	0	0	498.373	0.617303	0.617058	0.00549572	3	0.016184	11	0	66.4801	3.39118e-06	112280
2	0	0	1	0	0	512.453	0.546902	0.546695	-0.0119961	3	0.0161143	11	0	10.8848	-6.55821e-06	45572.8
2	0	0	0	0	0	526.534	0.476499	0.476296	-0.013962	3	0.0159587	11	0	24.9653	-6.65002e-06	34113.9
2	1	0	1	0	1	540.472	0.493226	0.492982	0.0147666	4	0.0159983	11	0	8.5881	7.27966e-06	33384.9
2	1	0	1	0	1	554.552	0.563628	0.56342	0.0161918	4	0.0161779	11	0	22.6686	9.12279e-06	34796.6
2	1	0	1	0	1	568.633	0.634031	0.633887	0.0415854	4	0.0164885	11	0	36.7491	2.63605e-05	15243
2	1	0	1	0	1	582.486	0.696693	0.696409	0.416968	4	0.0192117	11	0	50.6021	0.000290381	1670.17
2	1	0	1	0	1	596.566	0.626291	0.626072	0.0159898	4	0.0210762	11	0	64.6826	1.00107e-05	39154.5
2	0	0	1	0	1	610.647	0.555888	0.555677	-0.00988913	4	0.0210383	11	0	9.387	-5.49516e-06	56190.6
2	1	0	1	0	1	624.727	0.485487	0.485269	-0.0099812	4	0.0208871	11	0	23.4674	-4.84356e-06	48618.3
2	1	0	0	0	0	638.665	0.484238	0.484007	0.0129801	5	0.0208828	11	0	6.7906	6.28244e-06	37288.5
2	1	0	1	0	0	652.745	0.554641	0.554425	0.0115564	5	0.0210601	11	0	20.8711	6.40716e-06	47975.7
2	1	0	1	0	0	666.826	0.625043	0.62481	0.0345796	5	0.0213213	11	0	34.9516	2.16056e-05	18068.7
2	1	0	1	0	0	680.906	0.695445	0.69527	0.413861	5	0.023366	11	0	49.032	0.000287745	1679.96
2	1	0	1	0	0	694.759	0.635278	0.635075	0.0213588	5	0.0258539	11	0	62.8851	1.35645e-05	29733.6
2	1	0	1	0	0	708.84	0.564877	0.564662	-0.00704093	5	0.0258627	11	0	7.9889	-3.97575e-06	80197.1
2	0	0	1	0	0	722.92	0.494474	0.494274	-0.0110457	5	0.0257165	11	0	22.0694	-5.45959e-06	44748.2
2	1	0	1	0	1	736.858	0.475251	0.474952	0.0101903	6	0.025669	11	0	4.9931	4.83991e-06	46608.1
2	0	0	0	0	1	750.939	0.545653	0.545423	0.0102191	6	0.0258448	11	0	19.0736	5.57371e-06	53373.1
2	1	0	1	0	1	765.019	0.616056	0.615826	0.0265531	6	0.0260744	11	0	33.1541	1.63521e-05	23192.3
2	1	0	1	0	1	779.1	0.686457	0.686247	0.290512	6	0.0275148	11	0	47.2345	0.000199363	2362.2
2	1	0	1	0	1	792.953	0.644267	0.64409	0.0403465	6	0.0305338	11	0	61.0875	2.59868e-05	15964
2	0	0	0	0	1	807.033	0.573864	0.573656	-0.0100262	6	0.0306077	11	0	5.8918	-5.7516e-06	57215.5
2	0	0	1	0	1	821.114	0.503462	0.503171	-0.013081	6	0.0304674	11	0	19.9723	-6.58196e-06	38465.9
2	1	0	1	0	0	835.052	0.466263	0.466004	0.0138961	7	0.0303774	11	0	3.1956	6.47565e-06	33534.8
2	1	0	1	0	0	849.132	0.536666	0.536419	0.0110403	7	0.0305529	11	0	17.2761	5.92223e-06	48587.4
2	1	0	1	0	0	863.212	0.607068	0.606827	0.022625	7	0.0307619	11	0	31.3565	1.37295e-05	26821.1
2	1	0	0	0	0	877.293	0.67747	0.677227	0.204208	7	0.0317859	11	0	45.437	0.000138295	3316.35
2	1	0	1	0	0	891.146	0.653253	0.653049	0.0572544	7	0.035119	11	0	59.2901	3.739e-05	11406.1
2	1	0	1	0	0	905.226	0.582852	0.582589	-0.00660263	7	0.0352884	11	0	4.0943	-3.84662e-06	88235.9
2	0	0	0	0	0	919.307	0.512449	0.51222	-0.0132642	7	0.0351555	11	0	18.1748	-6.79418e-06	38616.7
2	0	0	1	0	1	933.245	0.457276	0.457022	0.00936259	8	0.0350242	11	0	1.3981	4.27891e-06	48813.6
2	0	0	1	0	1	947.325	0.527678	0.527501	0.00992937	8	0.0351986	11	0	15.4785	5.23776e-06	53125.3
2	1	0	1	0	1	961.406	0.598081	0.597814	0.0203104	8	0.0353937	11	0	29.5591	1.21418e-05	29433.9
2	1	0	1	0	1	975.486	0.668483	0.668223	0.141493	8	0.0361325	11	0	43.6395	9.45491e-05	4722.64
2	1	0	1	0	1	989.339	0.662242	0.662006	0.0893644	8	0.0395931	11	0	57.4925	5.91598e-05	7407.94
2	1	0	1	0	1	1003.42	0.591839	0.591629	-0.00539622	8	0.0398986	11	0	3.0957	-3.19256e-06	109638
2	0	0	1	0	1	1017.5	0.521437	0.521221	-0.012963	8	0.0397742	11	0	17.1762	-6.75657e-06	40208.4
2	0	0	0	0	1	1031.58	0.451034	0.450804	-0.013354	8	0.0396096	11	0	31.2567	-6.02005e-06	33758
2	1	0	1	0	0	1045.52	0.518691	0.518497	0.0145851	9	0.0397748	11	0	13.6811	7.56232e-06	35549.8
2	1	0	1	0	0	1059.6	0.589093	0.588868	0.0134578	9	0.0399606	11	0	27.7615	7.92484e-06	43756.7
2	1	0	1	0	0	1073.68	0.659495	0.659266	0.0975733	9	0.0405083	11	0	41.842	6.43268e-05	6756.62
2	1	0	0	0	0	1087.53	0.671229	0.670962	0.12925	9	0.0439292	11	0	55.695	8.67222e-05	5191.18
2	1	0	1	0	0	1101.61	0.600827	0.600582	-0.00171749	9	0.0444264	11	0	0.8988	-1.03149e-06	349685
2	0	0	1	0	0	1115.69	0.530424	0.530215	-0.0121957	9	0.0443135	11	0	14.9793	-6.46636e-06	43475.5
2	0	0	1	0	0	1129.77	0.460021	0.459814	-0.0132244	9	0.0441526	11	0	29.0598	-6.08076e-06	34770.1
2	0	0	1	0	1	1143.71	0.509702	0.50946	0.0102103	10	0.044272	11	0	11.8835	5.20176e-06	49896.5
2	1	0	0	0	1	1157.79	0.580105	0.57982	0.0143939	10	0.0444516	11	0	25.964	8.34588e-06	40282.3
2	1	0	1	0	1	1171.87	0.650508	0.650312	0.0688785	10	0.0448713	11	0	40.0445	4.47925e-05	9441.43
2	1	0	1	0	1	1185.73	0.680217	0.679992	0.199921	10	0.0481357	11	0	53.8975	0.000135945	3401.31
2	1	0	0	0	1	1199.81	0.609814	0.609609	0.00303014	10	0.0489333	11	0	67.978	1.8472e-06	201182
2	0	0	1	0	1	1213.89	0.539411	0.539209	-0.0098476	10	0.0488364	11	0	13.2816	-5.30992e-06	54755.4
2	0	0	1	0	1	1227.97	0.46901	0.468815	-0.014744	10	0.0486789	11	0	27.362	-6.9122e-06	31797.1
2	0	0	1	0	0	1241.91	0.500715	0.500455	0.00998069	11	0.0487544	11	0	10.086	4.99489e-06	50142.3
2	1	0	1	0	0	1255.99	0.571118	0.570849	0.0142191	11	0.0489309	11	0	24.1665	8.11694e-06	40146.7
2	1	0	0	0	0	1270.07	0.64152	0.641302	0.0526788	11	0.0492658	11	0	38.247	3.3783e-05	12173.8
2	1	0	1	0	0	1283.92	0.689204	0.688981	0.286252	11	0.052207	11	0	52.1	0.000197222	2406.9
2	1	0	1	0	0	1298	0.618802	0.618557	0.00636063	11	0.0534248	11	0	66.1805	3.93441e-06	97247.7
2	1	0	0	0	0	1312.08	0.548399	0.54818	-0.00728276	11	0.0533513	11	0	11.3843	-3.99226e-06	75271
2	0	0	1	0	0	1326.16	0.477996	0.477764	-0.0143287	11	0.0531983	11	0	25.4648	-6.84574e-06	33343.1
2	1	0	1	0	1	1340.1	0.491728	0.491504	0.0131016	12	0.0532303	11	0	8.2885	6.43949e-06	37514.8
2	1	0	1	0	1	1354.18	0.56213	0.56188	0.0105373	12	0.0534047	11	0	22.369	5.92068e-06	53323.1
2	1	0	1	0	1	1368.26	0.632533	0.632296	0.0350782	12	0.0536828	11	0	36.4495	2.21798e-05	18025.3
2	1	0	1	0	1	1382.11	0.698192	0.697977	0.411078	12	0.0560674	11	0	50.3025	0.000286923	1697.92
2	1	0	1	0	1	1396.19	0.627789	0.627576	0.0121334	12	0.0578837	11	0	64.383	7.61465e-06	51722.9
2	0	0	1	0	1	1410.27	0.557387	0.557137	-0.00721661	12	0.0578407	11	0	9.6866	-4.02064e-06	77202.1
2	0	0	1	0	1	1424.35	0.486985	0.486771	-0.0139573	12	0.0576914	11	0	23.767	-6.79399e-06	34875.8
2	1	0	0	0	0	1438.29	0.48274	0.482456	0.0120162	13	0.0576795	11	0	6.491	5.79729e-06	40150.5
2	0	0	1	0	0	1452.37	0.553143	0.552889	0.0110456	13	0.0578524	11	0	20.5715	6.10698e-06	50055.3
2	1	0	1	0	0	1466.45	0.623545	0.623337	0.0302144	13	0.0580927	11	0	34.652	1.88338e-05	20630.5
2	1	0	1	0	0	1480.53	0.693948	0.693747	0.364008	13	0.0598667	11	0	48.7325	0.00025253	1905.86
2	1	0	1	0	0	1494.39	0.636777	0.636592	0.022846	13	0.0622544	11	0	62.5855	1.45436e-05	27864.5
2	0	0	1	0	0	1508.47	0.566375	0.566133	-0.00819794	13	0.0622565	11	0	8.2884	-4.64112e-06	69057.9
2	1	0	1	0	0	1522.55	0.495972	0.495703	-0.0087155	13	0.0621125	11	0	22.3689	-4.32029e-06	56876
2	1	0	1	0	1	1536.49	0.473753	0.473532	0.0143458	14	0.0620578	11	0	4.6935	6.79319e-06	33008.4
2	0	0	0	0	1	1550.57	0.544155	0.543933	0.0100876	14	0.0622299	11	0	18.774	5.487e-06	53920.8
2	1	0	1	0	1	1564.65	0.614558	0.614325	0.021168	14	0.0624449	11	0	32.8545	1.3004e-05	29021.5
2	1	0	1	0	1	1578.73	0.68496	0.684771	0.255896	14	0.0637032	11	0	46.9349	0.00017523	2675.98
2	1	0	0	0	1	1592.58	0.645764	0.64559	0.0346338	14	0.0665861	11	0	60.788	2.23592e-05	18640.4
2	1	0	1	0	1	1606.66	0.575361	0.575115	-0.00639464	14	0.0666524	11	0	5.9918	-3.67765e-06	89937
2	0	0	1	0	1	1620.74	0.50496	0.504721	-0.00878417	14	0.066513	11	0	20.0722	-4.43355e-06	57458
2	1	0	1	0	0	1634.68	0.464765	0.464528	0.00940858	15	0.0664165	11	0	2.896	4.37054e-06	49372.8
2	1	0	1	0	0	1648.76	0.535168	0.534916	0.0135052	15	0.0665882	11	0	16.9765	7.22416e-06	39608.1
2	1	0	1	0	0	1662.84	0.60557	0.605367	0.0171196	15	0.0667864	11	0	31.0569	1.03636e-05	35361
2	1	0	1	0	0	1676.92	0.675973	0.675808	0.178955	15	0.0676864	11	0	45.1375	0.000120939	3776.41
2	1	0	1	0	0	1690.77	0.654751	0.65455	0.0564019	15	0.0708472	11	0	58.9905	3.69179e-05	11605.1
2	0	0	1	0	0	1704.85	0.58435	0.584148	-0.00779884	15	0.0710071	11	0	4.8932	-4.55568e-06	74902
2	1	0	0	0	0	1718.93	0.513947	0.513741	-0.00974682	15	0.0708747	11	0	18.9737	-5.00734e-06	52708.5
2	0	0	1	0	0	1731.72	0.450011	0.449945	-0.0269011	15	0.0707251	11	0	31.7581	-1.2104e-05	16725.9