File: ACS_Catal_2026/Figures_Na_K/main_figures/data/EC/20251112_2-148_alpha_reproducibility/20251112_2-148_005_gamma_reproducibility_K1_01_CVA_C01.mpt
EC-Lab ASCII FILE
Nb header lines : 66

Cyclic Voltammetry Advanced

Run on channel : 1 (SN 69187)
User :
CE vs. WE compliance from -10 V to 10 V
Electrode connection : standard
Potential control : Ewe
Ewe ctrl range : min = -1.00 V, max = 1.00 V
Safety Limits :
	Do not start on E overload
Acquisition started on : 11/12/2025 19:09:25.688
Loaded Setting File :  C:\Users\User\Documents\EC-Lab\Data\Yatsuzuka\20251030_2-147_gamma_reproducibility\20251030_2-147_001_gamma1_K_1.mps
Saved on :
	File : 20251112_2-148_005_gamma_reproducibility_K1_01_CVA_C01.mpr
	Directory : C:\Users\User\Documents\EC-Lab\Data\Yatsuzuka\20251112_2-148_alpha_reproducibility\
	Host : 192.109.209.127
Device : SP-150e (SN .003883)
Address : 192.109.209.128
EC-Lab for windows v11.52 (software)
Internet server v11.52 (firmware)
Command interpretor v11.50 (firmware)
Electrode material :
Initial state :
Electrolyte :
Comments :
Electrode surface area : 0.001 cm2
Characteristic mass : 0.001 g
Equivalent Weight : 0.000 g/eq.
Density : 0.000 g/cm3
Volume (V) : 0.001 cm3
Cycle Definition : Charge/Discharge alternance
Ei (V)              0.350
vs.                 Ref
ti (h:m:s)          0:00:10.0000
dti (s)             0.0000
dE/dt               10.000
dE/dt unit          mV/s
E1 (V)              0.450
vs.                 Ref
t1 (h:m:s)          0:00:0.0000
dt1 (s)             0.1000
Step percent        50
N                   10
E range min (V)     -1.000
E range max (V)     1.000
I Range             Auto
I Range min         Unset
I Range max         Unset
I Range init        Unset
Bandwidth           5
E2 (V)              0.350
vs.                 Ref
t2 (h:m:s)          0:00:0.0000
dt2 (s)             0.1000
nc cycles           9
nr                  1
Reverse Scan        0
Ef (V)              0.000
vs.                 Eoc
tf (h:m:s)          0:00:0.0000
dtf (s)             0.1000

mode	ox/red	error	control changes	Ns changes	counter inc.	time/s	control/V	Ewe/V	<I>/mA	cycle number	(Q-Qo)/C	I Range	Ns	step time/s	P/W
2	1	0	1	0	0	0.000000000000000E+000	0.34995	0.349724	0.00332545	1	0.0000000E+000	13	0	0.000000000000000E+000	1.16299e-06
2	1	0	1	0	0	1.7749	0.3677	0.367447	0.00277105	1	7.24387e-06	13	0	1.7476	1.01821e-06
2	0	0	1	0	0	3.5725	0.385675	0.385438	0.00506314	1	1.46335e-05	13	0	3.5452	1.95153e-06
2	1	0	1	0	0	5.3699	0.40365	0.403386	0.00283568	1	2.19525e-05	13	0	5.3426	1.14387e-06
2	1	0	1	0	0	7.1675	0.421625	0.421356	0.0050172	1	2.91841e-05	13	0	7.1402	2.11403e-06
2	1	0	1	0	0	8.965	0.439601	0.439417	0.00363083	1	3.62799e-05	13	0	8.9377	1.59545e-06
2	0	0	1	0	0	10.6793	0.443245	0.443021	-0.000786663	1	4.01492e-05	13	0	0.4993	-3.48508e-07
2	0	0	1	0	0	12.4768	0.425271	0.424998	-0.0012005	1	3.83044e-05	13	0	2.2968	-5.10208e-07
2	0	0	1	0	0	14.2743	0.407295	0.407033	-0.00266941	1	3.54512e-05	13	0	4.0943	-1.08654e-06
2	0	0	1	0	0	16.0719	0.38932	0.389075	-0.00157502	1	3.18877e-05	13	0	5.8919	-6.12799e-07
2	0	0	1	0	0	17.8693	0.371345	0.371101	-0.00364646	1	2.77425e-05	13	0	7.6893	-1.35321e-06
2	1	0	1	0	0	19.6669	0.35337	0.353098	-0.00152873	1	2.2998e-05	13	0	9.4869	-5.3979e-07
2	0	0	1	0	1	21.3321	0.363306	0.363129	0.00383681	2	2.61104e-05	13	0	1.3257	1.39326e-06
2	1	0	1	0	1	23.1297	0.381281	0.381031	0.00174778	2	3.15354e-05	13	0	3.1233	6.65959e-07
2	0	0	1	0	1	24.9271	0.399256	0.398998	0.00377015	2	3.67132e-05	13	0	4.9207	1.50428e-06
2	1	0	1	0	1	26.7247	0.417231	0.417001	0.00185736	2	4.17109e-05	13	0	6.7183	7.74519e-07
2	1	0	1	0	1	28.5222	0.435207	0.43495	0.00383627	2	4.66394e-05	13	0	8.5158	1.66859e-06
2	0	0	1	0	1	30.2265	0.447739	0.447521	-0.0013721	2	5.05458e-05	13	0	0.1997	-6.14041e-07
2	0	0	1	0	1	32.0241	0.429764	0.429542	-0.00127047	2	4.82299e-05	13	0	1.9973	-5.45721e-07
2	1	0	1	0	1	33.8215	0.411789	0.411566	-0.00180541	2	4.51613e-05	13	0	3.7947	-7.43045e-07
2	1	0	1	0	1	35.6191	0.393814	0.393522	-0.00172401	2	4.15638e-05	13	0	5.5923	-6.78435e-07
2	1	0	1	0	1	37.4166	0.375838	0.375592	-0.00342938	2	3.74452e-05	13	0	7.3898	-1.28805e-06
2	0	0	1	0	1	39.2141	0.357864	0.357562	-0.00151288	2	3.28059e-05	13	0	9.1873	-5.4095e-07
2	1	0	1	0	0	40.8794	0.358813	0.358554	0.0034215	3	3.31342e-05	13	0	0.8764	1.22679e-06
2	1	0	1	0	0	42.6769	0.376787	0.376564	0.00352858	3	3.82458e-05	13	0	2.6739	1.32874e-06
2	1	0	1	0	0	44.4744	0.394763	0.394496	0.0017339	3	4.30965e-05	13	0	4.4714	6.84016e-07
2	0	0	1	0	0	46.2719	0.412737	0.41255	0.00320951	3	4.77116e-05	13	0	6.2689	1.32408e-06
2	1	0	1	0	0	48.0694	0.430712	0.430429	0.00233506	3	5.21691e-05	13	0	8.0664	1.00508e-06
2	0	0	1	0	0	49.8669	0.448687	0.448464	0.00192925	3	5.66166e-05	13	0	9.8639	8.65201e-07
2	1	0	1	0	0	51.5713	0.434258	0.434009	-0.000544878	3	5.48661e-05	13	0	1.5479	-2.36482e-07
2	0	0	1	0	0	53.3688	0.416282	0.416041	-0.00294936	3	5.18366e-05	13	0	3.3454	-1.22705e-06
2	0	0	1	0	0	55.1663	0.398307	0.398005	-0.00121038	3	4.83146e-05	13	0	5.1429	-4.81739e-07
2	0	0	1	0	0	56.9638	0.380332	0.380035	-0.00381706	3	4.43388e-05	13	0	6.9404	-1.45062e-06
2	0	0	1	0	0	58.7613	0.362357	0.362055	-0.00183681	3	3.98646e-05	13	0	8.7379	-6.65026e-07
2	1	0	1	0	1	60.4266	0.354318	0.354062	0.00421431	4	3.76475e-05	13	0	0.3995	1.49213e-06
2	1	0	1	0	1	62.2241	0.372294	0.37208	0.00146775	4	4.26429e-05	13	0	2.197	5.4612e-07
2	1	0	1	0	1	64.0216	0.390268	0.390038	0.00341941	4	4.73641e-05	13	0	3.9945	1.3337e-06
2	0	0	1	0	1	65.8191	0.408244	0.408051	0.00184976	4	5.1829e-05	13	0	5.792	7.54798e-07
2	1	0	1	0	1	67.6167	0.426219	0.426001	0.00166762	4	5.60787e-05	13	0	7.5896	7.10409e-07
2	0	0	1	0	1	69.4141	0.444194	0.443955	0.00289633	4	6.02565e-05	13	0	9.387	1.28584e-06
2	0	0	1	0	1	71.1185	0.438751	0.438499	-0.00172882	4	6.01054e-05	13	0	1.0985	-7.58087e-07
2	0	0	1	0	1	72.916	0.420776	0.420514	-0.00267368	4	5.7169e-05	13	0	2.896	-1.12432e-06
2	0	0	1	0	1	74.7135	0.402801	0.40248	-0.00139629	4	5.3768e-05	13	0	4.6935	-5.61977e-07
2	0	0	1	0	1	76.511	0.384827	0.384515	-0.00347918	4	4.99383e-05	13	0	6.491	-1.3378e-06
2	1	0	1	0	1	78.3085	0.366851	0.366562	-0.00134679	4	4.56326e-05	13	0	8.2885	-4.93683e-07
2	1	0	1	0	0	79.9962	0.35005	0.349781	-0.000905241	5	4.11261e-05	13	0	9.9762	-3.16636e-07
2	1	0	1	0	0	81.7713	0.3678	0.36756	0.00211493	5	4.59181e-05	13	0	1.7476	7.77364e-07
2	0	0	1	0	0	83.5689	0.385775	0.385563	0.00203864	5	5.06087e-05	13	0	3.5452	7.86023e-07
2	1	0	1	0	0	85.3663	0.40375	0.403485	0.00304692	5	5.49902e-05	13	0	5.3426	1.22939e-06
2	1	0	1	0	0	87.1639	0.421725	0.421516	0.00188827	5	5.91635e-05	13	0	7.1402	7.95937e-07
2	1	0	1	0	0	88.9613	0.4397	0.439446	0.00287042	5	6.31809e-05	13	0	8.9376	1.2614e-06
2	0	0	1	0	0	90.6657	0.443245	0.442956	-0.00239723	5	6.46012e-05	13	0	0.6491	-1.06187e-06
2	0	0	1	0	0	92.4632	0.425271	0.425053	-0.000907944	5	6.17702e-05	13	0	2.4466	-3.85924e-07
2	1	0	1	0	0	94.2607	0.407295	0.407063	-0.00288213	5	5.84859e-05	13	0	4.2441	-1.17321e-06
2	1	0	1	0	0	96.0583	0.38932	0.389056	-0.00123577	5	5.47684e-05	13	0	6.0417	-4.80782e-07
2	1	0	1	0	0	97.8557	0.371345	0.371079	-0.0032087	5	5.06209e-05	13	0	7.8391	-1.19068e-06
2	1	0	1	0	0	99.6533	0.35337	0.35302	-0.00133627	5	4.59585e-05	13	0	9.6367	-4.71731e-07
2	1	0	1	0	1	101.318	0.363306	0.363074	0.00358623	6	4.85765e-05	13	0	1.3257	1.30207e-06
2	1	0	1	0	1	103.116	0.381281	0.381002	0.00207937	6	5.32127e-05	13	0	3.1233	7.92243e-07
2	1	0	1	0	1	104.913	0.399256	0.399007	0.00350173	6	5.75691e-05	13	0	4.9207	1.39721e-06
2	1	0	1	0	1	106.711	0.417231	0.417041	0.00164446	6	6.16746e-05	13	0	6.7183	6.85807e-07
2	1	0	1	0	1	108.509	0.435207	0.434986	0.00321313	6	6.56065e-05	13	0	8.5158	1.39767e-06
2	1	0	1	0	1	110.213	0.447739	0.447481	-0.002157	6	6.85205e-05	13	0	0.1997	-9.65218e-07
2	1	0	1	0	1	112.01	0.429764	0.429484	-0.00101485	6	6.58156e-05	13	0	1.9973	-4.35861e-07
2	1	0	1	0	1	113.808	0.411789	0.411555	-0.00171777	6	6.2641e-05	13	0	3.7947	-7.06956e-07
2	1	0	1	0	1	115.605	0.393814	0.393522	-0.00280258	6	5.90442e-05	13	0	5.5923	-1.10288e-06
2	1	0	1	0	1	117.403	0.375838	0.375577	-0.00103815	6	5.50356e-05	13	0	7.3898	-3.89904e-07
2	0	0	1	0	1	119.2	0.357864	0.357585	-0.0035041	6	5.05481e-05	13	0	9.1873	-1.25301e-06
2	1	0	1	0	0	120.866	0.358813	0.358545	0.00159568	7	5.07203e-05	13	0	0.8489	5.72124e-07
2	1	0	1	0	0	122.663	0.376787	0.376531	0.00346504	7	5.53576e-05	13	0	2.6464	1.3047e-06
2	1	0	1	0	0	124.461	0.394763	0.394504	0.00244384	7	5.97172e-05	13	0	4.4439	9.64105e-07
2	1	0	1	0	0	126.258	0.412737	0.412564	0.00191919	7	6.37991e-05	13	0	6.2414	7.91787e-07
2	1	0	1	0	0	128.056	0.430712	0.430507	0.00322238	7	6.76856e-05	13	0	8.0389	1.38726e-06
2	1	0	1	0	0	129.853	0.448687	0.448525	0.00215948	7	7.14679e-05	13	0	9.8364	9.68581e-07
2	1	0	1	0	0	131.558	0.434258	0.434004	-0.00164013	7	6.94835e-05	13	0	1.5753	-7.11826e-07
2	1	0	1	0	0	133.355	0.416282	0.416015	-0.00080155	7	6.64124e-05	13	0	3.3728	-3.33457e-07
2	1	0	1	0	0	135.153	0.398307	0.398052	-0.00267513	7	6.29425e-05	13	0	5.1703	-1.06484e-06
2	1	0	1	0	0	136.95	0.380332	0.38001	-0.00247169	7	5.9062e-05	13	0	6.9678	-9.39266e-07
2	0	0	1	0	0	138.748	0.362357	0.362073	-0.00136901	7	5.47337e-05	13	0	8.7653	-4.95683e-07
2	1	0	1	0	1	140.413	0.354318	0.354078	0.0041668	8	5.25637e-05	13	0	0.3995	1.47538e-06
2	1	0	1	0	1	142.21	0.372294	0.372067	0.00174879	8	5.72001e-05	13	0	2.197	6.50666e-07
2	1	0	1	0	1	144.008	0.390268	0.39008	0.00303859	8	6.15504e-05	13	0	3.9945	1.18529e-06
2	0	0	1	0	1	145.805	0.408244	0.408046	0.0021274	8	6.56488e-05	13	0	5.792	8.68074e-07
2	1	0	1	0	1	147.603	0.426219	0.426048	0.0014657	8	6.95049e-05	13	0	7.5896	6.24457e-07
2	0	0	1	0	1	149.4	0.444194	0.444011	0.0027173	8	7.32391e-05	13	0	9.387	1.20651e-06
2	0	0	1	0	1	151.105	0.438751	0.438487	-0.00215547	8	7.28597e-05	13	0	1.0985	-9.45147e-07
2	0	0	1	0	1	152.902	0.420776	0.420508	-0.00105249	8	6.98954e-05	13	0	2.896	-4.4258e-07
2	0	0	1	0	1	154.7	0.402801	0.402589	-0.00298804	8	6.65421e-05	13	0	4.6935	-1.20295e-06
2	0	0	1	0	1	156.497	0.384827	0.384524	-0.00239797	8	6.27927e-05	13	0	6.491	-9.2208e-07
2	1	0	1	0	1	158.295	0.366851	0.366603	-0.00120346	8	5.86252e-05	13	0	8.2885	-4.4119e-07
2	0	0	0	0	0	159.983	0.35005	0.3498	-0.00300592	9	5.42672e-05	13	0	9.9762	-1.05147e-06
2	0	0	1	0	0	161.758	0.3678	0.367569	0.00182936	9	5.87919e-05	13	0	1.7476	6.72416e-07
2	1	0	1	0	0	163.555	0.385775	0.385547	0.00195068	9	6.31705e-05	13	0	3.5452	7.5208e-07
2	1	0	1	0	0	165.353	0.40375	0.403548	0.00336646	9	6.72666e-05	13	0	5.3426	1.35853e-06
2	1	0	1	0	0	167.15	0.421725	0.421486	0.00206247	9	7.11323e-05	13	0	7.1402	8.69302e-07
2	1	0	1	0	0	168.948	0.4397	0.439481	0.00164476	9	7.48178e-05	13	0	8.9376	7.22842e-07
2	0	0	1	0	0	170.652	0.443245	0.442961	-0.000784331	9	7.59991e-05	13	0	0.6765	-3.47428e-07
2	1	0	1	0	0	172.45	0.425271	0.42498	-0.00230427	9	7.31511e-05	13	0	2.474	-9.79267e-07
2	1	0	1	0	0	174.247	0.407295	0.407036	-0.00207787	9	6.98942e-05	13	0	4.2715	-8.45769e-07
2	1	0	1	0	0	176.045	0.38932	0.389083	-0.000945429	9	6.62698e-05	13	0	6.0691	-3.67851e-07
2	0	0	1	0	0	177.842	0.371345	0.371037	-0.00275977	9	6.22329e-05	13	0	7.8665	-1.02398e-06
2	1	0	1	0	0	179.64	0.35337	0.353122	-0.00352359	9	5.77026e-05	13	0	9.6641	-1.24426e-06
2	1	0	1	0	1	181.305	0.363306	0.36309	0.00192377	10	6.01689e-05	13	0	1.2982	6.98504e-07
2	1	0	1	0	1	183.102	0.381281	0.380984	0.00358054	10	6.45805e-05	13	0	3.0958	1.36413e-06
2	1	0	1	0	1	184.9	0.399256	0.399003	0.00256675	10	6.87049e-05	13	0	4.8932	1.02414e-06
2	1	0	1	0	1	186.697	0.417231	0.416999	0.00144609	10	7.2572e-05	13	0	6.6908	6.03019e-07
2	1	0	1	0	1	188.495	0.435207	0.434949	0.00256365	10	7.62438e-05	13	0	8.4883	1.11506e-06
2	0	0	1	0	1	190.199	0.447739	0.447518	-0.0018052	10	7.89087e-05	13	0	0.1997	-8.07857e-07
2	0	0	1	0	1	191.997	0.429764	0.429511	-0.00231156	10	7.61813e-05	13	0	1.9973	-9.9284e-07
2	0	0	1	0	1	193.794	0.411789	0.411569	-0.00114697	10	7.30421e-05	13	0	3.7947	-4.72059e-07
2	0	0	1	0	1	195.592	0.393814	0.393507	-0.00199565	10	6.95373e-05	13	0	5.5923	-7.85303e-07
2	1	0	1	0	1	197.389	0.375838	0.375562	-0.00332295	10	6.56349e-05	13	0	7.3898	-1.24797e-06
2	1	0	1	0	1	199.187	0.357864	0.357578	-0.00169855	10	6.12669e-05	13	0	9.1873	-6.07362e-07
2	0	0	0	0	1	199.971	0.35	0.349762	-0.00282221	10	5.92221e-05	13	0	9.9712	-9.87101e-07