File: ACS_Catal_2026/Figures_Na_K/main_figures/data/EC/20251112_2-148_alpha_reproducibility/20251112_2-148_002_alpha_reproducibility_2_Na1_02_PEIS_C02.mpt
EC-Lab ASCII FILE
Nb header lines : 63

Potentio Electrochemical Impedance Spectroscopy

Run on channel : 2 (SN 69290)
User :
CE vs. WE compliance from -10 V to 10 V
Electrode connection : standard
Potential control : Ewe
Ewe ctrl range : min = -1.00 V, max = 1.00 V
Safety Limits :
	Do not start on E overload
Acquisition started on : 11/12/2025 13:57:42.969
Loaded Setting File :  C:\Users\User\Documents\EC-Lab\Data\Yatsuzuka\20251112_2-148_alpha_reproducibility\20251112_2-148_002_alpha_reproducibility_2_K1.mps
Saved on :
	File : 20251112_2-148_002_alpha_reproducibility_2_Na1_02_PEIS_C02.mpr
	Directory : C:\Users\User\Documents\EC-Lab\Data\Yatsuzuka\20251112_2-148_alpha_reproducibility\
	Host : 192.109.209.127
Device : SP-150e (SN .003883)
Address : 192.109.209.128
EC-LAB for windows v11.52 (software)
Internet server v11.52 (firmware)
Command interpretor v11.50 (firmware)
Electrode material :
Initial state :
Electrolyte :
Comments :
Electrode surface area : 0.001 cm2
Characteristic mass : 0.001 g
Equivalent Weight : 0.000 g/eq.
Density : 0.000 g/cm3
Volume (V) : 0.001 cm3
Cycle Definition : Charge/Discharge alternance
Mode                Single sine
E (V)               0.4500
vs.                 Ref
tE (h:m:s)          0:00:0.0000
record              0
dI                  0.000
unit dI             mA
dt (s)              0.000
fi                  500.000
unit fi             kHz
ff                  1.000
unit ff             Hz
Nd                  6
Points              per decade
spacing             Logarithmic
Va (mV)             10.0
pw                  0.10
Na                  2
corr                0
E range min (V)     -1.000
E range max (V)     1.000
I Range             Auto
Bandwidth           5
nc cycles           0
goto Ns'            0
nr cycles           0
inc. cycle          0

freq/Hz	Re(Z)/Ohm	-Im(Z)/Ohm	|Z|/Ohm	Phase(Z)/deg	time/s	<Ewe>/V	<I>/mA	Cs/uF	Cp/uF	cycle number	I Range	|Ewe|/V	|I|/A	Ns	(Q-Qo)/mA.h	Re(Y)/Ohm-1	Im(Y)/Ohm-1	|Y|/Ohm-1	Phase(Y)/deg	Re(C)/nF	Im(C)/nF	|C|/nF	Phase(C)/deg	Re(M)	Im(M)	|M|	Phase(M)/deg	Re(Permittivity)	Im(Permittivity)	|Permittivity|	Phase(Permittivity)/deg	Re(Resistivity)/Ohm.cm	Im(Resistivity)/Ohm.cm	|Resistivity|/Ohm.cm	Phase(Resistivity)/deg	Re(Conductivity)/mS/cm	Im(Conductivity)/mS/cm	|Conductivity|/mS/cm	Phase(Conductivity)/deg	Tan(Delta)	Loss Angle(Delta)/deg	dq/mA.h	Pwe/W	Rwe/Ohm
500019	13.352	-2.67426	13.6172	11.3259	201.614	0.449781	0.0197475	-0.119023	-0.00459055	1	10	0.00448075	0.000329052	0	3.25877e-05	0.0720066	-0.0144222	0.0734367	-11.3259	-4.59055	22.9196	23.3748	-101.326	0.0000000E+000	0.0000000E+000	0.0000000E+000	101.326	0.0000000E+000	0.0000000E+000	0.0000000E+000	-101.326	0.0000000E+000	0.0000000E+000	0.0000000E+000	11.3259	0.0000000E+000	0.0000000E+000	0.0000000E+000	-11.3259	4.99277	78.6741	3.25877e-05	8.88206e-06	22776.6
231063	7.94777	-0.626609	7.97243	4.50792	202.459	0.449535	0.0209446	-1.09924	-0.00679055	1	10	0.0101502	0.00127316	0	3.88554e-05	0.125044	-0.00985858	0.125432	-4.50792	-6.79055	86.1299	86.3972	-94.5079	0.0000000E+000	0.0000000E+000	0.0000000E+000	94.5079	0.0000000E+000	0.0000000E+000	0.0000000E+000	-94.5079	0.0000000E+000	0.0000000E+000	0.0000000E+000	4.50792	0.0000000E+000	0.0000000E+000	0.0000000E+000	-4.50792	12.6838	85.4921	3.07003e-06	9.41532e-06	21463.1
106786	7.4367	-0.0238254	7.43673	0.183561	203.303	0.449524	0.0181217	-62.5554	-0.000642067	1	10	0.0109517	0.00147265	0	4.66151e-05	0.134467	-0.0004308	0.134468	-0.183561	-0.642073	200.41	200.411	-90.1836	0.0000000E+000	0.0000000E+000	0.0000000E+000	90.1836	0.0000000E+000	0.0000000E+000	0.0000000E+000	-90.1836	0.0000000E+000	0.0000000E+000	0.0000000E+000	0.183561	0.0000000E+000	0.0000000E+000	0.0000000E+000	-0.183561	312.133	89.8164	4.39118e-06	8.14613e-06	24805.9
49352.4	7.43958	0.0566899	7.4398	-0.436587	204.148	0.449543	0.0192143	56.8862	0.0033029	1	10	0.0106044	0.00142536	0	4.82779e-05	0.134408	0.0010242	0.134412	0.436587	3.30288	433.449	433.462	-89.5634	0.0000000E+000	0.0000000E+000	0.0000000E+000	89.5634	0.0000000E+000	0.0000000E+000	0.0000000E+000	-89.5634	0.0000000E+000	0.0000000E+000	0.0000000E+000	-0.436587	0.0000000E+000	0.0000000E+000	0.0000000E+000	0.436587	131.233	89.5634	1.02311e-06	8.63765e-06	23396.3
22806.6	7.45172	0.0518185	7.4519	-0.398422	204.992	0.44954	0.0200272	134.672	0.00651195	1	10	0.0105059	0.00140983	0	5.03104e-05	0.134191	0.000933149	0.134194	0.398422	6.51195	936.446	936.469	-89.6016	0.0000000E+000	0.0000000E+000	0.0000000E+000	89.6016	0.0000000E+000	0.0000000E+000	0.0000000E+000	-89.6016	0.0000000E+000	0.0000000E+000	0.0000000E+000	-0.398422	0.0000000E+000	0.0000000E+000	0.0000000E+000	0.398422	143.804	89.6016	1.64422e-06	9.00303e-06	22446.4
10540.4	7.46167	0.0439304	7.4618	-0.337324	205.836	0.449544	0.0168035	343.715	0.0119136	1	10	0.0102865	0.00137856	0	5.28181e-05	0.134014	0.000789002	0.134016	0.337324	11.9137	2023.54	2023.58	-89.6627	0.0000000E+000	0.0000000E+000	0.0000000E+000	89.6627	0.0000000E+000	0.0000000E+000	0.0000000E+000	-89.6627	0.0000000E+000	0.0000000E+000	0.0000000E+000	-0.337324	0.0000000E+000	0.0000000E+000	0.0000000E+000	0.337324	169.852	89.6627	1.2416e-06	7.55389e-06	26753
4871.56	7.47838	0.0440208	7.47851	-0.337263	207.05	0.449546	0.0172006	742.154	0.0257146	1	10	0.0101162	0.00135271	0	5.48482e-05	0.133714	0.000787097	0.133717	0.337263	25.7148	4368.47	4368.55	-89.6627	0.0000000E+000	0.0000000E+000	0.0000000E+000	89.6627	0.0000000E+000	0.0000000E+000	0.0000000E+000	-89.6627	0.0000000E+000	0.0000000E+000	0.0000000E+000	-0.337263	0.0000000E+000	0.0000000E+000	0.0000000E+000	0.337263	169.883	89.6627	3.54744e-07	7.73247e-06	26135.5
2250.72	7.49429	0.0643395	7.49457	-0.491879	207.979	0.449532	0.0185505	1099.06	0.0809996	1	10	0.0109752	0.00146442	0	6.11271e-05	0.133425	0.00114547	0.13343	0.491879	81	9434.87	9435.22	-89.5081	0.0000000E+000	0.0000000E+000	0.0000000E+000	89.5081	0.0000000E+000	0.0000000E+000	0.0000000E+000	-89.5081	0.0000000E+000	0.0000000E+000	0.0000000E+000	-0.491879	0.0000000E+000	0.0000000E+000	0.0000000E+000	0.491879	116.481	89.5081	3.42993e-06	8.33906e-06	24232.9
1040.33	7.50348	0.101672	7.50417	-0.776309	209.13	0.449536	0.0173927	1504.69	0.276213	1	10	0.0102232	0.00136233	0	6.99034e-05	0.133247	0.00180549	0.133259	0.776309	276.212	20384.7	20386.6	-89.2237	0.0000000E+000	0.0000000E+000	0.0000000E+000	89.2237	0.0000000E+000	0.0000000E+000	0.0000000E+000	-89.2237	0.0000000E+000	0.0000000E+000	0.0000000E+000	-0.776309	0.0000000E+000	0.0000000E+000	0.0000000E+000	0.776309	73.8009	89.2237	2.49215e-06	7.81863e-06	25846.3
480.769	7.5165	0.19669	7.51908	-1.49896	210.06	0.449529	0.0178271	1683.07	1.15169	1	10	0.0102699	0.00136584	0	7.41781e-05	0.13295	0.00347898	0.132995	1.49896	1151.69	44011.9	44027	-88.501	0.0000000E+000	0.0000000E+000	0.0000000E+000	88.501	0.0000000E+000	0.0000000E+000	0.0000000E+000	-88.501	0.0000000E+000	0.0000000E+000	0.0000000E+000	-1.49896	0.0000000E+000	0.0000000E+000	0.0000000E+000	1.49896	38.215	88.501	2.05453e-06	8.01378e-06	25216
222.061	7.53824	0.398367	7.54876	-3.02505	210.984	0.449535	0.0157407	1799.14	5.0105	1	10	0.0102805	0.00136189	0	7.77037e-05	0.132288	0.0069909	0.132472	3.02505	5010.51	94812.8	94945.1	-86.9749	0.0000000E+000	0.0000000E+000	0.0000000E+000	86.9749	0.0000000E+000	0.0000000E+000	0.0000000E+000	-86.9749	0.0000000E+000	0.0000000E+000	0.0000000E+000	-3.02505	0.0000000E+000	0.0000000E+000	0.0000000E+000	3.02505	18.9228	86.9749	9.58564e-07	7.07599e-06	28558.8
102.667	7.58773	0.800627	7.62985	-6.02334	211.921	0.449543	0.0170738	1936.23	21.32	1	10	0.0102882	0.00134842	0	8.35001e-05	0.130341	0.013753	0.131064	6.02334	21320	202054	203176	-83.9767	0.0000000E+000	0.0000000E+000	0.0000000E+000	83.9767	0.0000000E+000	0.0000000E+000	0.0000000E+000	-83.9767	0.0000000E+000	0.0000000E+000	0.0000000E+000	-6.02334	0.0000000E+000	0.0000000E+000	0.0000000E+000	6.02334	9.47723	83.9767	3.02031e-06	7.67542e-06	26329.4
47.4443	7.67882	1.6401	7.85202	-12.0565	212.832	0.449528	0.0168687	2045.34	89.2367	1	10	0.0102989	0.00131163	0	8.88623e-05	0.124547	0.0266016	0.127356	12.0565	89236.7	417799	427223	-77.9435	0.0000000E+000	0.0000000E+000	0.0000000E+000	77.9435	0.0000000E+000	0.0000000E+000	0.0000000E+000	-77.9435	0.0000000E+000	0.0000000E+000	0.0000000E+000	-12.0565	0.0000000E+000	0.0000000E+000	0.0000000E+000	12.0565	4.68192	77.9435	2.92822e-06	7.58296e-06	26648.6
21.9144	7.81117	3.34948	8.49902	-23.21	213.7	0.449521	0.0158563	2168.26	336.767	1	10	0.0103077	0.00121281	0	9.52809e-05	0.108138	0.0463703	0.117661	23.21	336767	785358	854517	-66.79	0.0000000E+000	0.0000000E+000	0.0000000E+000	66.79	0.0000000E+000	0.0000000E+000	0.0000000E+000	-66.79	0.0000000E+000	0.0000000E+000	0.0000000E+000	-23.21	0.0000000E+000	0.0000000E+000	0.0000000E+000	23.21	2.33205	66.79	4.49808e-06	7.12773e-06	28349.7
10.1329	8.06697	6.95193	10.6492	-40.754	214.627	0.449529	0.0158936	2259.33	962.845	1	10	0.0103176	0.000968865	0	9.33489e-05	0.071134	0.0613016	0.0939038	40.754	962845	1.11728e+06	1.47492e+06	-49.246	0.0000000E+000	0.0000000E+000	0.0000000E+000	49.246	0.0000000E+000	0.0000000E+000	0.0000000E+000	-49.246	0.0000000E+000	0.0000000E+000	0.0000000E+000	-40.754	0.0000000E+000	0.0000000E+000	0.0000000E+000	40.754	1.16039	49.246	-4.00693e-06	7.14463e-06	28283.7
4.68375	8.36131	14.6943	16.9066	-60.3594	215.677	0.449539	0.000489911	2312.48	1746.87	1	11	0.0103304	0.000611024	0	0.000102673	0.0292523	0.0514085	0.0591484	60.3594	1.74687e+06	994000	2.00988e+06	-29.6406	0.0000000E+000	0.0000000E+000	0.0000000E+000	29.6406	0.0000000E+000	0.0000000E+000	0.0000000E+000	-29.6406	0.0000000E+000	0.0000000E+000	0.0000000E+000	-60.3594	0.0000000E+000	0.0000000E+000	0.0000000E+000	60.3594	0.569017	29.6406	8.74089e-06	2.20234e-07	917595
2.16533	9.10313	31.0236	32.3316	-73.6469	217.391	0.449553	0.0017119	2369.22	2181.4	1	11	0.0103288	0.000319466	0	9.53831e-05	0.00870838	0.0296783	0.0309295	73.6469	2.1814e+06	640080	2.27337e+06	-16.3531	0.0000000E+000	0.0000000E+000	0.0000000E+000	16.3531	0.0000000E+000	0.0000000E+000	0.0000000E+000	-16.3531	0.0000000E+000	0.0000000E+000	0.0000000E+000	-73.6469	0.0000000E+000	0.0000000E+000	0.0000000E+000	73.6469	0.293426	16.3531	-6.63885e-06	7.6959e-07	262605
1.00006	10.6575	65.9996	66.8546	-80.8272	221.731	0.449552	0.000221599	2411.3	2350.02	1	12	0.0103339	0.000154573	0	0.000100929	0.00238447	0.0147666	0.0149578	80.8272	2.35002e+06	379476	2.38046e+06	-9.17281	0.0000000E+000	0.0000000E+000	0.0000000E+000	9.17281	0.0000000E+000	0.0000000E+000	0.0000000E+000	-9.17281	0.0000000E+000	0.0000000E+000	0.0000000E+000	-80.8272	0.0000000E+000	0.0000000E+000	0.0000000E+000	80.8272	0.161478	9.17281	5.71913e-06	9.962e-08	2.02868e+06