File: ACS_Catal_2026/Figures_Na_K/main_figures/data/EC/20251112_2-148_alpha_reproducibility/20251112_2-148_004_Na_first_2_K1_02_PEIS_C02.mpt
EC-Lab ASCII FILE
Nb header lines : 63

Potentio Electrochemical Impedance Spectroscopy

Run on channel : 2 (SN 69290)
User :
CE vs. WE compliance from -10 V to 10 V
Electrode connection : standard
Potential control : Ewe
Ewe ctrl range : min = -1.00 V, max = 1.00 V
Safety Limits :
	Do not start on E overload
Acquisition started on : 11/12/2025 16:20:32.186
Loaded Setting File :  C:\Users\User\Documents\EC-Lab\Data\Yatsuzuka\20251112_2-148_alpha_reproducibility\20251112_2-148_002_alpha_reproducibility_2_K1.mps
Saved on :
	File : 20251112_2-148_004_Na_first_2_K1_02_PEIS_C02.mpr
	Directory : C:\Users\User\Documents\EC-Lab\Data\Yatsuzuka\20251112_2-148_alpha_reproducibility\
	Host : 192.109.209.127
Device : SP-150e (SN .003883)
Address : 192.109.209.128
EC-Lab for windows v11.52 (software)
Internet server v11.52 (firmware)
Command interpretor v11.50 (firmware)
Electrode material :
Initial state :
Electrolyte :
Comments :
Electrode surface area : 0.001 cm2
Characteristic mass : 0.001 g
Equivalent Weight : 0.000 g/eq.
Density : 0.000 g/cm3
Volume (V) : 0.001 cm3
Cycle Definition : Charge/Discharge alternance
Mode                Single sine
E (V)               0.4500
vs.                 Ref
tE (h:m:s)          0:00:0.0000
record              0
dI                  0.000
unit dI             mA
dt (s)              0.000
fi                  500.000
unit fi             kHz
ff                  1.000
unit ff             Hz
Nd                  6
Points              per decade
spacing             Logarithmic
Va (mV)             10.0
pw                  0.10
Na                  2
corr                0
E range min (V)     -1.000
E range max (V)     1.000
I Range             Auto
Bandwidth           5
nc cycles           0
goto Ns'            0
nr cycles           0
inc. cycle          0

freq/Hz	Re(Z)/Ohm	-Im(Z)/Ohm	|Z|/Ohm	Phase(Z)/deg	time/s	<Ewe>/V	<I>/mA	Cs/uF	Cp/uF	cycle number	I Range	|Ewe|/V	|I|/A	Ns	(Q-Qo)/mA.h	Re(Y)/Ohm-1	Im(Y)/Ohm-1	|Y|/Ohm-1	Phase(Y)/deg	Re(C)/nF	Im(C)/nF	|C|/nF	Phase(C)/deg	Re(M)	Im(M)	|M|	Phase(M)/deg	Re(Permittivity)	Im(Permittivity)	|Permittivity|	Phase(Permittivity)/deg	Re(Resistivity)/Ohm.cm	Im(Resistivity)/Ohm.cm	|Resistivity|/Ohm.cm	Phase(Resistivity)/deg	Re(Conductivity)/mS/cm	Im(Conductivity)/mS/cm	|Conductivity|/mS/cm	Phase(Conductivity)/deg	Tan(Delta)	Loss Angle(Delta)/deg	dq/mA.h
500019	11.6392	-3.20334	12.072	15.3879	201.942	0.44979	0.0218004	-0.0993646	-0.00699645	1	10	0.00423285	0.000350633	0	3.29145e-05	0.0798667	-0.0219808	0.0828363	-15.3879	-6.99645	25.4214	26.3666	-105.388	0.0000000E+000	0.0000000E+000	0.0000000E+000	105.388	0.0000000E+000	0.0000000E+000	0.0000000E+000	-105.388	0.0000000E+000	0.0000000E+000	0.0000000E+000	15.3879	0.0000000E+000	0.0000000E+000	0.0000000E+000	-15.3879	3.63348	74.6121	3.29145e-05
231063	5.79343	-1.04346	5.88665	10.2101	202.65	0.449545	0.0225574	-0.660109	-0.0207409	1	10	0.0101413	0.00172276	0	3.59115e-05	0.167186	-0.0301119	0.169876	-10.2101	-20.7409	115.157	117.01	-100.21	0.0000000E+000	0.0000000E+000	0.0000000E+000	100.21	0.0000000E+000	0.0000000E+000	0.0000000E+000	-100.21	0.0000000E+000	0.0000000E+000	0.0000000E+000	10.2101	0.0000000E+000	0.0000000E+000	0.0000000E+000	-10.2101	5.55215	79.7899	9.81563e-07
106786	5.14843	-0.268361	5.15542	2.98384	203.494	0.449528	0.0220652	-5.55373	-0.0150486	1	10	0.0109752	0.00212886	0	3.70679e-05	0.193708	-0.010097	0.193971	-2.98384	-15.0486	288.703	289.095	-92.9838	0.0000000E+000	0.0000000E+000	0.0000000E+000	92.9838	0.0000000E+000	0.0000000E+000	0.0000000E+000	-92.9838	0.0000000E+000	0.0000000E+000	0.0000000E+000	2.98384	0.0000000E+000	0.0000000E+000	0.0000000E+000	-2.98384	19.1847	87.0162	-2.06417e-07
49352.4	5.09077	-0.0887051	5.09154	0.998261	204.338	0.449546	0.0206891	-36.3549	-0.0110348	1	10	0.010637	0.00208915	0	4.58265e-05	0.196374	-0.00342177	0.196404	-0.998261	-11.0347	633.282	633.378	-90.9983	0.0000000E+000	0.0000000E+000	0.0000000E+000	90.9983	0.0000000E+000	0.0000000E+000	0.0000000E+000	-90.9983	0.0000000E+000	0.0000000E+000	0.0000000E+000	0.998261	0.0000000E+000	0.0000000E+000	0.0000000E+000	-0.998261	57.3898	89.0017	5.61159e-06
22806.6	5.07921	-0.030065	5.0793	0.339143	205.183	0.449555	0.0181012	-232.113	-0.00813231	1	10	0.0105224	0.00207163	0	4.85637e-05	0.196874	-0.00116534	0.196878	-0.339143	-8.13229	1373.88	1373.9	-90.3391	0.0000000E+000	0.0000000E+000	0.0000000E+000	90.3391	0.0000000E+000	0.0000000E+000	0.0000000E+000	-90.3391	0.0000000E+000	0.0000000E+000	0.0000000E+000	0.339143	0.0000000E+000	0.0000000E+000	0.0000000E+000	-0.339143	168.941	89.6609	5.50739e-07
10540.4	5.08218	0.00208531	5.08218	-0.0235095	206.027	0.449551	0.0215207	7240.9	0.00121909	1	10	0.0103452	0.00203558	0	4.77172e-05	0.196766	8.07367e-05	0.196766	0.0235095	1.21891	2971.08	2971.08	-89.9765	0.0000000E+000	0.0000000E+000	0.0000000E+000	89.9765	0.0000000E+000	0.0000000E+000	0.0000000E+000	-89.9765	0.0000000E+000	0.0000000E+000	0.0000000E+000	-0.0235095	0.0000000E+000	0.0000000E+000	0.0000000E+000	0.0235095	2437.13	89.9765	1.38133e-06
4871.56	5.0862	0.0267565	5.08627	-0.301408	207.24	0.44954	0.0183678	1221.02	0.0337895	1	10	0.0101451	0.00199461	0	4.77836e-05	0.196605	0.00103426	0.196608	0.301408	33.7894	6423.13	6423.22	-89.6986	0.0000000E+000	0.0000000E+000	0.0000000E+000	89.6986	0.0000000E+000	0.0000000E+000	0.0000000E+000	-89.6986	0.0000000E+000	0.0000000E+000	0.0000000E+000	-0.301408	0.0000000E+000	0.0000000E+000	0.0000000E+000	0.301408	190.092	89.6986	-2.23267e-07
2250.72	5.09331	0.0536044	5.09359	-0.602986	208.392	0.449546	0.0176145	1319.16	0.1461	1	10	0.0101604	0.00199474	0	5.21343e-05	0.196314	0.00206611	0.196325	0.602986	146.101	13882	13882.7	-89.397	0.0000000E+000	0.0000000E+000	0.0000000E+000	89.397	0.0000000E+000	0.0000000E+000	0.0000000E+000	-89.397	0.0000000E+000	0.0000000E+000	0.0000000E+000	-0.602986	0.0000000E+000	0.0000000E+000	0.0000000E+000	0.602986	95.0165	89.397	8.50129e-07
1040.33	5.10363	0.104305	5.10469	-1.17082	209.322	0.449551	0.0169042	1466.7	0.612371	1	10	0.0104486	0.00204686	0	5.73782e-05	0.195857	0.00400283	0.195898	1.17082	612.369	29963.2	29969.4	-88.8292	0.0000000E+000	0.0000000E+000	0.0000000E+000	88.8292	0.0000000E+000	0.0000000E+000	0.0000000E+000	-88.8292	0.0000000E+000	0.0000000E+000	0.0000000E+000	-1.17082	0.0000000E+000	0.0000000E+000	0.0000000E+000	1.17082	48.9297	88.8292	4.0318e-06
480.769	5.11912	0.206974	5.1233	-2.31529	210.252	0.44954	0.0155151	1599.44	2.61035	1	10	0.010518	0.00205297	0	5.93861e-05	0.195027	0.00788525	0.195187	2.31529	2610.35	64562.3	64615	-87.6847	0.0000000E+000	0.0000000E+000	0.0000000E+000	87.6847	0.0000000E+000	0.0000000E+000	0.0000000E+000	-87.6847	0.0000000E+000	0.0000000E+000	0.0000000E+000	-2.31529	0.0000000E+000	0.0000000E+000	0.0000000E+000	2.31529	24.7332	87.6847	1.03923e-06
222.061	5.14459	0.42063	5.16176	-4.6742	211.177	0.449539	0.0152764	1703.92	11.315	1	10	0.0105331	0.0020406	0	6.34673e-05	0.193088	0.0157872	0.193733	4.6742	11315	138390	138852	-85.3258	0.0000000E+000	0.0000000E+000	0.0000000E+000	85.3258	0.0000000E+000	0.0000000E+000	0.0000000E+000	-85.3258	0.0000000E+000	0.0000000E+000	0.0000000E+000	-4.6742	0.0000000E+000	0.0000000E+000	0.0000000E+000	4.6742	12.2307	85.3258	2.59892e-06
102.667	5.19488	0.841651	5.26262	-9.20284	212.113	0.449548	0.0179707	1841.86	47.1103	1	10	0.0105441	0.00200358	0	6.93904e-05	0.187573	0.0303898	0.190019	9.20284	47110.3	290776	294568	-80.7972	0.0000000E+000	0.0000000E+000	0.0000000E+000	80.7972	0.0000000E+000	0.0000000E+000	0.0000000E+000	-80.7972	0.0000000E+000	0.0000000E+000	0.0000000E+000	-9.20284	0.0000000E+000	0.0000000E+000	0.0000000E+000	9.20284	6.17225	80.7972	3.80554e-06
47.4443	5.27626	1.71538	5.5481	-18.01	213.024	0.449536	0.016921	1955.58	186.942	1	10	0.010556	0.00190264	0	7.63992e-05	0.17141	0.0557277	0.180242	18.01	186942	575007	604632	-71.99	0.0000000E+000	0.0000000E+000	0.0000000E+000	71.99	0.0000000E+000	0.0000000E+000	0.0000000E+000	-71.99	0.0000000E+000	0.0000000E+000	0.0000000E+000	-18.01	0.0000000E+000	0.0000000E+000	0.0000000E+000	18.01	3.07586	71.99	3.45019e-06
21.9144	5.39244	3.54729	6.45459	-33.338	213.892	0.44953	0.0129961	2047.35	618.372	1	10	0.0105662	0.00163701	0	8.20504e-05	0.129434	0.0851451	0.154929	33.338	618372	940022	1.12518e+06	-56.662	0.0000000E+000	0.0000000E+000	0.0000000E+000	56.662	0.0000000E+000	0.0000000E+000	0.0000000E+000	-56.662	0.0000000E+000	0.0000000E+000	0.0000000E+000	-33.338	0.0000000E+000	0.0000000E+000	0.0000000E+000	33.338	1.52016	56.662	5.34725e-06
10.1329	5.61615	7.43463	9.31745	-52.9324	214.819	0.449533	0.0152951	2112.64	1345.08	1	10	0.0105768	0.00113516	0	8.95508e-05	0.0646911	0.0856377	0.107325	52.9324	1.34508e+06	1.01608e+06	1.68573e+06	-37.0676	0.0000000E+000	0.0000000E+000	0.0000000E+000	37.0676	0.0000000E+000	0.0000000E+000	0.0000000E+000	-37.0676	0.0000000E+000	0.0000000E+000	0.0000000E+000	-52.9324	0.0000000E+000	0.0000000E+000	0.0000000E+000	52.9324	0.755404	37.0676	3.61312e-06
4.68375	5.98943	15.7247	16.8267	-69.1484	215.869	0.449554	0.00168737	2160.95	1887.16	1	11	0.0105822	0.000628895	0	9.61352e-05	0.0211538	0.0555371	0.0594293	69.1484	1.88716e+06	718809	2.01942e+06	-20.8516	0.0000000E+000	0.0000000E+000	0.0000000E+000	20.8516	0.0000000E+000	0.0000000E+000	0.0000000E+000	-20.8516	0.0000000E+000	0.0000000E+000	0.0000000E+000	-69.1484	0.0000000E+000	0.0000000E+000	0.0000000E+000	69.1484	0.380894	20.8516	4.6878e-06
2.16533	6.69203	33.3618	34.0263	-78.6576	217.583	0.449562	0.00268468	2203.17	2117.95	1	11	0.0105764	0.00031083	0	8.73297e-05	0.00577999	0.028815	0.029389	78.6576	2.11795e+06	424838	2.16014e+06	-11.3424	0.0000000E+000	0.0000000E+000	0.0000000E+000	11.3424	0.0000000E+000	0.0000000E+000	0.0000000E+000	-11.3424	0.0000000E+000	0.0000000E+000	0.0000000E+000	-78.6576	0.0000000E+000	0.0000000E+000	0.0000000E+000	78.6576	0.20059	11.3424	-1.19548e-06
1.00006	8.25247	70.7972	71.2766	-83.3513	221.923	0.449562	0.000604103	2247.9	2217.76	1	12	0.0105799	0.000148434	0	9.77714e-05	0.00162439	0.0139355	0.0140299	83.3513	2.21776e+06	258513	2.23278e+06	-6.64867	0.0000000E+000	0.0000000E+000	0.0000000E+000	6.64867	0.0000000E+000	0.0000000E+000	0.0000000E+000	-6.64867	0.0000000E+000	0.0000000E+000	0.0000000E+000	-83.3513	0.0000000E+000	0.0000000E+000	0.0000000E+000	83.3513	0.116565	6.64868	3.81121e-06