File: ACS_Catal_2026/Figures_Na_K/main_figures/data/EC/20251112_2-148_alpha_reproducibility/20251112_2-148_006_gamma_reproducibility_2_K1_01_CVA_C02.mpt
EC-Lab ASCII FILE
Nb header lines : 66

Cyclic Voltammetry Advanced

Run on channel : 2 (SN 69290)
User :
CE vs. WE compliance from -10 V to 10 V
Electrode connection : standard
Potential control : Ewe
Ewe ctrl range : min = -1.00 V, max = 1.00 V
Safety Limits :
	Do not start on E overload
Acquisition started on : 11/12/2025 19:12:40.101
Loaded Setting File :  C:\Users\User\Documents\EC-Lab\Data\Yatsuzuka\20251112_2-148_alpha_reproducibility\20251112_2-148_002_alpha_reproducibility_2_K1.mps
Saved on :
	File : 20251112_2-148_006_gamma_reproducibility_2_K1_01_CVA_C02.mpr
	Directory : C:\Users\User\Documents\EC-Lab\Data\Yatsuzuka\20251112_2-148_alpha_reproducibility\
	Host : 192.109.209.127
Device : SP-150e (SN .003883)
Address : 192.109.209.128
EC-Lab for windows v11.52 (software)
Internet server v11.52 (firmware)
Command interpretor v11.50 (firmware)
Electrode material :
Initial state :
Electrolyte :
Comments :
Electrode surface area : 0.001 cm2
Characteristic mass : 0.001 g
Equivalent Weight : 0.000 g/eq.
Density : 0.000 g/cm3
Volume (V) : 0.001 cm3
Cycle Definition : Charge/Discharge alternance
Ei (V)              0.350
vs.                 Ref
ti (h:m:s)          0:00:10.0000
dti (s)             0.0000
dE/dt               10.000
dE/dt unit          mV/s
E1 (V)              0.450
vs.                 Ref
t1 (h:m:s)          0:00:0.0000
dt1 (s)             0.1000
Step percent        50
N                   10
E range min (V)     -1.000
E range max (V)     1.000
I Range             Auto
I Range min         Unset
I Range max         Unset
I Range init        Unset
Bandwidth           5
E2 (V)              0.350
vs.                 Ref
t2 (h:m:s)          0:00:0.0000
dt2 (s)             0.1000
nc cycles           9
nr                  1
Reverse Scan        0
Ef (V)              0.000
vs.                 Eoc
tf (h:m:s)          0:00:0.0000
dtf (s)             0.1000

mode	ox/red	error	control changes	Ns changes	counter inc.	time/s	control/V	Ewe/V	<I>/mA	cycle number	(Q-Qo)/C	I Range	Ns	step time/s	P/W
2	1	0	0	0	0	0.000000000000000E+000	0.349989	0.349534	0.0101304	1	0.0000000E+000	13	0	0.000000000000000E+000	3.54091e-06
2	1	0	1	0	0	1.7755	0.367743	0.367324	0.00868297	1	1.49076e-05	13	0	1.748	3.18946e-06
2	1	0	1	0	0	3.5733	0.385722	0.385282	0.0104089	1	3.13141e-05	13	0	3.5458	4.01035e-06
2	1	0	1	0	0	5.3712	0.403699	0.403311	0.0118713	1	4.86608e-05	13	0	5.3437	4.78782e-06
2	1	0	1	0	0	7.1691	0.421679	0.421254	0.0109779	1	6.67448e-05	13	0	7.1416	4.62448e-06
2	1	0	1	0	0	8.9669	0.439658	0.439217	0.00890967	1	8.54497e-05	13	0	8.9394	3.91328e-06
2	1	0	1	0	0	10.6757	0.443253	0.442754	-0.000348657	1	9.80781e-05	13	0	10.6482	-1.54369e-07
2	0	0	1	0	0	12.4735	0.425275	0.424813	-0.0023584	1	9.78356e-05	13	0	0.5992	-1.00188e-06
2	0	0	1	0	0	14.2714	0.407296	0.406836	-0.00073283	1	9.44864e-05	13	0	2.3971	-2.98141e-07
2	0	0	1	0	0	16.0693	0.389317	0.388856	-0.00270139	1	8.93362e-05	13	0	4.195	-1.05045e-06
2	0	0	1	0	0	17.8671	0.371339	0.370855	-0.00616754	1	8.29111e-05	13	0	5.9928	-2.28726e-06
2	0	0	1	0	0	19.665	0.35336	0.352908	-0.00627063	1	7.5381e-05	13	0	7.7907	-2.21296e-06
2	1	0	1	0	1	21.3296	0.363298	0.362877	0.00734798	2	8.057e-05	13	0	1.2985	2.66642e-06
2	1	0	1	0	1	23.1275	0.381277	0.380854	0.00382653	2	9.06553e-05	13	0	3.0964	1.45735e-06
2	0	0	1	0	1	24.9253	0.399256	0.398797	0.00746111	2	0.00010103	13	0	4.8942	2.97547e-06
2	1	0	1	0	1	26.7232	0.417233	0.416786	0.00425931	2	0.000111755	13	0	6.6921	1.77522e-06
2	1	0	1	0	1	28.5211	0.435213	0.434792	0.00781607	2	0.000123153	13	0	8.49	3.39837e-06
2	1	0	1	0	1	30.2248	0.447748	0.447264	0.000706272	2	0.000133299	13	0	0.000000000000000E+000	3.1589e-07
2	0	0	1	0	1	32.0227	0.429769	0.429289	-0.00394653	2	0.000131054	13	0	1.698	-1.6942e-06
2	0	0	1	0	1	33.8205	0.411791	0.411284	-0.00123607	2	0.000126595	13	0	3.4958	-5.08378e-07
2	0	0	1	0	1	35.6184	0.393812	0.393353	-0.00562189	2	0.000120902	13	0	5.2937	-2.21139e-06
2	0	0	1	0	1	37.4163	0.375833	0.37536	-0.00195335	2	0.000114195	13	0	7.0916	-7.3321e-07
2	0	0	1	0	1	39.2141	0.357855	0.357413	-0.00657653	2	0.000106572	13	0	8.8894	-2.35054e-06
2	1	0	1	0	0	40.8787	0.358804	0.358369	0.0037237	3	0.000106807	13	0	0.849	1.33446e-06
2	1	0	1	0	0	42.6766	0.376782	0.376362	0.00652752	3	0.000115805	13	0	2.6469	2.45671e-06
2	1	0	1	0	0	44.4745	0.394761	0.394361	0.00514874	3	0.000124937	13	0	4.4448	2.03046e-06
2	1	0	1	0	0	46.2723	0.41274	0.412242	0.00474492	3	0.000134268	13	0	6.2426	1.95606e-06
2	1	0	1	0	0	48.0702	0.430717	0.430284	0.00736429	3	0.000143897	13	0	8.0405	3.16874e-06
2	1	0	1	0	0	49.8681	0.448697	0.448281	0.00425391	3	0.000154206	13	0	9.8384	1.90695e-06
2	0	0	1	0	0	51.5718	0.434264	0.433749	-0.00369537	3	0.000152721	13	0	1.5482	-1.60286e-06
2	0	0	1	0	0	53.3697	0.416285	0.415821	-0.00130347	3	0.000148105	13	0	3.3461	-5.42013e-07
2	0	0	1	0	0	55.1675	0.398307	0.397828	-0.00516511	3	0.000142387	13	0	5.1439	-2.05482e-06
2	0	0	1	0	0	56.9654	0.380328	0.37985	-0.00462016	3	0.000135805	13	0	6.9418	-1.75497e-06
2	1	0	1	0	0	58.7633	0.362349	0.361896	-0.00638738	3	0.000128322	13	0	8.7397	-2.31157e-06
2	1	0	1	0	1	60.4279	0.354309	0.353935	0.00561821	4	0.000124362	13	0	0.3996	1.98848e-06
2	1	0	1	0	1	62.2257	0.372288	0.37191	0.00674773	4	0.00013272	13	0	2.1974	2.50955e-06
2	1	0	1	0	1	64.0236	0.390266	0.389841	0.00308194	4	0.000141328	13	0	3.9953	1.20147e-06
2	1	0	1	0	1	65.8215	0.408245	0.407816	0.00674788	4	0.000149954	13	0	5.7932	2.75189e-06
2	0	0	1	0	1	67.6193	0.426224	0.425759	0.00358428	4	0.000158807	13	0	7.591	1.52604e-06
2	1	0	1	0	1	69.4173	0.444202	0.443761	0.00685901	4	0.000168058	13	0	9.389	3.04376e-06
2	0	0	1	0	1	71.1209	0.438759	0.438297	-0.0023955	4	0.000169457	13	0	0.9988	-1.04994e-06
2	0	0	1	0	1	72.9188	0.42078	0.420332	-0.00139691	4	0.000164961	13	0	2.7967	-5.87165e-07
2	0	0	1	0	1	74.7167	0.402801	0.402357	-0.0036854	4	0.000159368	13	0	4.5946	-1.48285e-06
2	1	0	1	0	1	76.5145	0.384823	0.384343	-0.00528522	4	0.000152882	13	0	6.3924	-2.03134e-06
2	0	0	1	0	1	78.3124	0.366844	0.366381	-0.00410711	4	0.000145632	13	0	8.1903	-1.50477e-06
2	1	0	1	0	0	79.9994	0.350039	0.349648	-0.00153229	5	0.000138007	13	0	9.8773	-5.35761e-07
2	0	0	1	0	0	81.7749	0.367793	0.367387	0.00487141	5	0.000145736	13	0	1.748	1.7897e-06
2	1	0	1	0	0	83.5727	0.385772	0.385342	0.00512178	5	0.000153977	13	0	3.5458	1.97363e-06
2	0	0	1	0	0	85.3706	0.40375	0.403321	0.00623033	5	0.000162285	13	0	5.3437	2.51282e-06
2	1	0	1	0	0	87.1685	0.421729	0.421302	0.00435688	5	0.000170648	13	0	7.1416	1.83556e-06
2	1	0	1	0	0	88.9663	0.439708	0.439294	0.00357947	5	0.000179275	13	0	8.9394	1.57244e-06
2	1	0	1	0	0	90.6701	0.443253	0.442756	-0.000303935	5	0.000183453	13	0	0.5994	-1.34569e-07
2	0	0	1	0	0	92.4679	0.425275	0.424803	-0.00103622	5	0.000179134	13	0	2.3972	-4.40189e-07
2	0	0	1	0	0	94.2658	0.407296	0.406834	-0.00414812	5	0.000173674	13	0	4.1951	-1.6876e-06
2	0	0	1	0	0	96.0637	0.389317	0.388875	-0.00546071	5	0.000167385	13	0	5.993	-2.12353e-06
2	0	0	1	0	0	97.8615	0.371339	0.370904	-0.00645953	5	0.00016034	13	0	7.7908	-2.39587e-06
2	0	0	1	0	0	99.6594	0.35336	0.352909	-0.00688807	5	0.000152484	13	0	9.5887	-2.43086e-06
2	1	0	1	0	1	101.324	0.363298	0.362887	0.00223054	6	0.000156431	13	0	1.2985	8.09433e-07
2	1	0	1	0	1	103.122	0.381277	0.380844	0.00267228	6	0.00016446	13	0	3.0964	1.01772e-06
2	1	0	1	0	1	104.92	0.399256	0.398818	0.00328613	6	0.000172479	13	0	4.8942	1.31057e-06
2	0	0	1	0	1	106.718	0.417233	0.416762	0.00573235	6	0.000180535	13	0	6.6921	2.38902e-06
2	0	0	1	0	1	108.515	0.435213	0.434731	0.00325922	6	0.000188749	13	0	8.49	1.41688e-06
2	1	0	1	0	1	110.219	0.447748	0.447289	0.000133501	6	0.000195517	13	0	0.1499	5.97136e-08
2	1	0	1	0	1	112.017	0.429769	0.429255	-0.00124807	6	0.000191483	13	0	1.9478	-5.35738e-07
2	1	0	1	0	1	113.815	0.411791	0.411298	-0.00280525	6	0.000186175	13	0	3.7456	-1.1538e-06
2	1	0	1	0	1	115.613	0.393812	0.393324	-0.00248942	6	0.000180079	13	0	5.5435	-9.7915e-07
2	0	0	1	0	1	117.411	0.375833	0.375415	-0.0026341	6	0.000173245	13	0	7.3414	-9.88883e-07
2	1	0	1	0	1	119.208	0.357855	0.357404	-0.00470352	6	0.000165637	13	0	9.1392	-1.68106e-06
2	1	0	1	0	0	120.873	0.358804	0.35838	0.00323737	7	0.000165545	13	0	0.849	1.16021e-06
2	1	0	1	0	0	122.671	0.376782	0.376363	0.00406141	7	0.000173416	13	0	2.6469	1.52857e-06
2	1	0	1	0	0	124.469	0.394761	0.394413	0.00276825	7	0.000181258	13	0	4.4448	1.09183e-06
2	1	0	1	0	0	126.267	0.41274	0.412294	0.00343709	7	0.000189063	13	0	6.2426	1.41709e-06
2	1	0	1	0	0	128.065	0.430717	0.430226	0.00641317	7	0.000196976	13	0	8.0405	2.75911e-06
2	1	0	1	0	0	129.862	0.448697	0.448288	0.00424287	7	0.000205204	13	0	9.8384	1.90203e-06
2	0	0	1	0	0	131.566	0.434264	0.433763	-0.0022152	7	0.000202542	13	0	1.5756	-9.60871e-07
2	0	0	1	0	0	133.364	0.416285	0.415778	-0.00272528	7	0.000197459	13	0	3.3735	-1.13311e-06
2	0	0	1	0	0	135.162	0.398307	0.397908	-0.00175271	7	0.000191519	13	0	5.1713	-6.97419e-07
2	0	0	1	0	0	136.96	0.380328	0.379848	-0.00587648	7	0.0001849	13	0	6.9692	-2.23217e-06
2	1	0	1	0	0	138.758	0.362349	0.361867	-0.00250634	7	0.000177515	13	0	8.7671	-9.0696e-07
2	0	0	1	0	1	140.422	0.354309	0.353868	0.00436323	8	0.000173587	13	0	0.4271	1.54401e-06
2	0	0	1	0	1	142.22	0.372288	0.371823	0.00278969	8	0.000181221	13	0	2.2249	1.03727e-06
2	1	0	1	0	1	144.018	0.390266	0.38986	0.0022694	8	0.00018895	13	0	4.0228	8.84748e-07
2	1	0	1	0	1	145.816	0.408245	0.407806	0.00522338	8	0.000196591	13	0	5.8207	2.13013e-06
2	1	0	1	0	1	147.614	0.426224	0.425809	0.00590548	8	0.000204299	13	0	7.6185	2.51461e-06
2	0	0	1	0	1	149.412	0.444202	0.443732	0.00594252	8	0.000212196	13	0	9.4165	2.63689e-06
2	0	0	1	0	1	151.115	0.438759	0.43824	-0.00342951	8	0.000212622	13	0	1.0987	-1.50295e-06
2	0	0	1	0	1	152.913	0.42078	0.42029	-0.00487503	8	0.000207711	13	0	2.8966	-2.04893e-06
2	0	0	1	0	1	154.711	0.402801	0.402334	-0.00444184	8	0.000201959	13	0	4.6945	-1.7871e-06
2	0	0	1	0	1	156.509	0.384823	0.384344	-0.00468341	8	0.000195523	13	0	6.4923	-1.80004e-06
2	1	0	1	0	1	158.307	0.366844	0.366416	-0.00480663	8	0.000188379	13	0	8.2902	-1.76123e-06
2	1	0	1	0	0	159.994	0.350039	0.349553	-0.00322899	9	0.000180919	13	0	9.9772	-1.1287e-06
2	1	0	1	0	0	161.769	0.367793	0.367352	0.00224569	9	0.000188159	13	0	1.748	8.24958e-07
2	1	0	1	0	0	163.567	0.385772	0.385345	0.00288582	9	0.000195797	13	0	3.5458	1.11204e-06
2	1	0	1	0	0	165.365	0.40375	0.403343	0.00364524	9	0.000203363	13	0	5.3437	1.47028e-06
2	1	0	1	0	0	167.163	0.421729	0.421312	0.00501521	9	0.00021089	13	0	7.1416	2.11297e-06
2	1	0	1	0	0	168.961	0.439708	0.439222	0.00619028	9	0.000218557	13	0	8.9394	2.71891e-06
2	0	0	1	0	0	170.664	0.443253	0.442791	-0.00371773	9	0.000221877	13	0	0.6493	-1.64618e-06
2	0	0	1	0	0	172.462	0.425275	0.424786	-0.00460531	9	0.000217238	13	0	2.4471	-1.95627e-06
2	0	0	1	0	0	174.26	0.407296	0.406848	-0.00484618	9	0.000211684	13	0	4.245	-1.97166e-06
2	1	0	1	0	0	176.058	0.389317	0.388807	-0.00536714	9	0.000205424	13	0	6.0429	-2.08678e-06
2	0	0	1	0	0	177.856	0.371339	0.370885	-0.00593364	9	0.000198483	13	0	7.8407	-2.2007e-06
2	0	0	1	0	0	179.654	0.35336	0.352912	-0.0063666	9	0.000190797	13	0	9.6386	-2.24685e-06
2	1	0	1	0	1	181.318	0.363298	0.362848	0.00462666	10	0.000194507	13	0	1.2985	1.67877e-06
2	0	0	1	0	1	183.116	0.381277	0.380829	0.00457617	10	0.000202057	13	0	3.0964	1.74274e-06
2	0	0	1	0	1	184.914	0.399256	0.398833	0.00446052	10	0.000209528	13	0	4.8942	1.779e-06
2	0	0	1	0	1	186.712	0.417233	0.416835	0.00464886	10	0.000216938	13	0	6.6921	1.93781e-06
2	0	0	1	0	1	188.51	0.435213	0.434783	0.00496554	10	0.000224425	13	0	8.49	2.15893e-06
2	0	0	1	0	1	190.214	0.447748	0.447265	-0.00347969	10	0.000230425	13	0	0.1998	-1.55634e-06
2	0	0	1	0	1	192.011	0.429769	0.429325	-0.00394327	10	0.000226125	13	0	1.9977	-1.69294e-06
2	0	0	1	0	1	193.809	0.411791	0.411364	-0.00375749	10	0.000220742	13	0	3.7955	-1.5457e-06
2	0	0	1	0	1	195.607	0.393812	0.393299	-0.00339175	10	0.00021467	13	0	5.5934	-1.33397e-06
2	0	0	1	0	1	197.405	0.375833	0.375369	-0.00246336	10	0.000207918	13	0	7.3913	-9.24668e-07
2	0	0	1	0	1	199.203	0.357855	0.357361	-0.00257425	10	0.000200441	13	0	9.1891	-9.19938e-07
2	0	0	0	0	1	199.986	0.349989	0.349553	-0.00125877	10	0.000196928	13	0	9.9722	-4.40007e-07