File: ACS_Catal_2026/Figures_Na_K/main_figures/data/EC/20251112_2-148_alpha_reproducibility/20251112_2-148_003_alpha_Na_first_1_K2_02_PEIS_C01.mpt
EC-Lab ASCII FILE
Nb header lines : 63

Potentio Electrochemical Impedance Spectroscopy

Run on channel : 1 (SN 69187)
User :
CE vs. WE compliance from -10 V to 10 V
Electrode connection : standard
Potential control : Ewe
Ewe ctrl range : min = -1.00 V, max = 1.00 V
Safety Limits :
	Do not start on E overload
Acquisition started on : 11/12/2025 17:41:45.774
Loaded Setting File :  C:\Users\User\Documents\EC-Lab\Data\Yatsuzuka\20251030_2-147_gamma_reproducibility\20251030_2-147_001_gamma1_K_1.mps
Saved on :
	File : 20251112_2-148_003_alpha_Na_first_1_K2_02_PEIS_C01.mpr
	Directory : C:\Users\User\Documents\EC-Lab\Data\Yatsuzuka\20251112_2-148_alpha_reproducibility\
	Host : 192.109.209.127
Device : SP-150e (SN .003883)
Address : 192.109.209.128
EC-Lab for windows v11.52 (software)
Internet server v11.52 (firmware)
Command interpretor v11.50 (firmware)
Electrode material :
Initial state :
Electrolyte :
Comments :
Electrode surface area : 0.001 cm2
Characteristic mass : 0.001 g
Equivalent Weight : 0.000 g/eq.
Density : 0.000 g/cm3
Volume (V) : 0.001 cm3
Cycle Definition : Charge/Discharge alternance
Mode                Single sine
E (V)               0.4500
vs.                 Ref
tE (h:m:s)          0:00:0.0000
record              0
dI                  0.000
unit dI             mA
dt (s)              0.000
fi                  500.000
unit fi             kHz
ff                  1.000
unit ff             Hz
Nd                  6
Points              per decade
spacing             Logarithmic
Va (mV)             10.0
pw                  0.10
Na                  2
corr                0
E range min (V)     -1.000
E range max (V)     1.000
I Range             Auto
Bandwidth           5
nc cycles           0
goto Ns'            0
nr cycles           0
inc. cycle          0

freq/Hz	Re(Z)/Ohm	-Im(Z)/Ohm	|Z|/Ohm	Phase(Z)/deg	time/s	<Ewe>/V	<I>/mA	Cs/uF	Cp/uF	cycle number	I Range	|Ewe|/V	|I|/A	Ns	(Q-Qo)/mA.h	Re(Y)/Ohm-1	Im(Y)/Ohm-1	|Y|/Ohm-1	Phase(Y)/deg	Re(C)/nF	Im(C)/nF	|C|/nF	Phase(C)/deg	Re(M)	Im(M)	|M|	Phase(M)/deg	Re(Permittivity)	Im(Permittivity)	|Permittivity|	Phase(Permittivity)/deg	Re(Resistivity)/Ohm.cm	Im(Resistivity)/Ohm.cm	|Resistivity|/Ohm.cm	Phase(Resistivity)/deg	Re(Conductivity)/mS/cm	Im(Conductivity)/mS/cm	|Conductivity|/mS/cm	Phase(Conductivity)/deg	Tan(Delta)	Loss Angle(Delta)/deg	dq/mA.h
500019	15.3993	-2.10209	15.5421	7.77313	201.6	0.450136	0.0139343	-0.15142	-0.00276989	1	10	0.00521575	0.000335587	0	2.12039e-05	0.06375	-0.0087022	0.0643412	-7.77313	-2.76989	20.2915	20.4797	-97.7731	0.0000000E+000	0.0000000E+000	0.0000000E+000	97.7731	0.0000000E+000	0.0000000E+000	0.0000000E+000	-97.7731	0.0000000E+000	0.0000000E+000	0.0000000E+000	7.77313	0.0000000E+000	0.0000000E+000	0.0000000E+000	-7.77313	7.32573	82.2269	2.12039e-05
231063	8.64823	-0.849559	8.68986	5.61045	202.444	0.449816	0.0126858	-0.810769	-0.00774923	1	10	0.0103228	0.00118792	0	2.30919e-05	0.114525	-0.0112504	0.115077	-5.61045	-7.74923	78.8846	79.2644	-95.6105	0.0000000E+000	0.0000000E+000	0.0000000E+000	95.6105	0.0000000E+000	0.0000000E+000	0.0000000E+000	-95.6105	0.0000000E+000	0.0000000E+000	0.0000000E+000	5.61045	0.0000000E+000	0.0000000E+000	0.0000000E+000	-5.61045	10.1797	84.3895	3.31745e-07
106786	7.71825	-0.204372	7.72095	1.51678	203.424	0.449756	0.0128796	-7.29262	-0.00510957	1	10	0.0100967	0.0013077	0	2.60674e-05	0.129472	-0.00342831	0.129518	-1.51678	-5.10957	192.966	193.034	-91.5168	0.0000000E+000	0.0000000E+000	0.0000000E+000	91.5168	0.0000000E+000	0.0000000E+000	0.0000000E+000	-91.5168	0.0000000E+000	0.0000000E+000	0.0000000E+000	1.51678	0.0000000E+000	0.0000000E+000	0.0000000E+000	-1.51678	37.7657	88.4832	4.25584e-06
49352.4	7.62306	-0.0517276	7.62324	0.388785	204.268	0.449754	0.014007	-62.3433	-0.00287049	1	10	0.0106048	0.00139112	0	2.94648e-05	0.131175	-0.00089011	0.131178	-0.388785	-2.8705	423.022	423.032	-90.3888	0.0000000E+000	0.0000000E+000	0.0000000E+000	90.3888	0.0000000E+000	0.0000000E+000	0.0000000E+000	-90.3888	0.0000000E+000	0.0000000E+000	0.0000000E+000	0.388785	0.0000000E+000	0.0000000E+000	0.0000000E+000	-0.388785	147.369	89.6112	1.25372e-07
22806.6	7.60742	-0.00434303	7.60743	0.0327098	205.112	0.449751	0.00970805	-1606.82	-0.000523694	1	10	0.0104455	0.00137307	0	3.08167e-05	0.13145	-7.50442e-05	0.131451	-0.0327098	-0.523653	917.324	917.324	-90.0327	0.0000000E+000	0.0000000E+000	0.0000000E+000	90.0327	0.0000000E+000	0.0000000E+000	0.0000000E+000	-90.0327	0.0000000E+000	0.0000000E+000	0.0000000E+000	0.0327098	0.0000000E+000	0.0000000E+000	0.0000000E+000	-0.0327098	1751.64	89.9673	2.3699e-06
10540.4	7.6082	0.021341	7.60823	-0.160714	205.956	0.449762	0.0108727	707.536	0.00556688	1	10	0.0102218	0.00134352	0	3.167e-05	0.131436	0.000368679	0.131437	0.160714	5.56684	1984.63	1984.63	-89.8393	0.0000000E+000	0.0000000E+000	0.0000000E+000	89.8393	0.0000000E+000	0.0000000E+000	0.0000000E+000	-89.8393	0.0000000E+000	0.0000000E+000	0.0000000E+000	-0.160714	0.0000000E+000	0.0000000E+000	0.0000000E+000	0.160714	356.506	89.8393	1.13134e-06
4871.56	7.6139	0.0325657	7.61397	-0.24506	206.948	0.449758	0.0120933	1003.21	0.0183523	1	10	0.010973	0.00144116	0	3.30371e-05	0.131336	0.000561744	0.131338	0.24506	18.3525	4290.79	4290.83	-89.7549	0.0000000E+000	0.0000000E+000	0.0000000E+000	89.7549	0.0000000E+000	0.0000000E+000	0.0000000E+000	-89.7549	0.0000000E+000	0.0000000E+000	0.0000000E+000	-0.24506	0.0000000E+000	0.0000000E+000	0.0000000E+000	0.24506	233.801	89.7549	8.49113e-07
2250.72	7.62918	0.0649524	7.62945	-0.487787	208.1	0.449763	0.0121473	1088.69	0.0789055	1	10	0.0103187	0.00135248	0	3.45751e-05	0.131066	0.00111586	0.131071	0.487787	78.9053	9268.07	9268.41	-89.5122	0.0000000E+000	0.0000000E+000	0.0000000E+000	89.5122	0.0000000E+000	0.0000000E+000	0.0000000E+000	-89.5122	0.0000000E+000	0.0000000E+000	0.0000000E+000	-0.487787	0.0000000E+000	0.0000000E+000	0.0000000E+000	0.487787	117.458	89.5122	6.22338e-07
1040.33	7.64594	0.118268	7.64685	-0.886186	209.03	0.449769	0.0133194	1293.54	0.309421	1	10	0.0104705	0.00136925	0	3.88446e-05	0.130757	0.00202256	0.130773	0.886186	309.421	20003.8	20006.2	-89.1138	0.0000000E+000	0.0000000E+000	0.0000000E+000	89.1138	0.0000000E+000	0.0000000E+000	0.0000000E+000	-89.1138	0.0000000E+000	0.0000000E+000	0.0000000E+000	-0.886186	0.0000000E+000	0.0000000E+000	0.0000000E+000	0.886186	64.6492	89.1138	2.63835e-06
480.769	7.65471	0.234616	7.6583	-1.75556	209.96	0.449762	0.0115957	1411	1.32427	1	10	0.0104953	0.00137045	0	4.10828e-05	0.130516	0.00400031	0.130577	1.75556	1324.27	43206.3	43226.6	-88.2444	0.0000000E+000	0.0000000E+000	0.0000000E+000	88.2444	0.0000000E+000	0.0000000E+000	0.0000000E+000	-88.2444	0.0000000E+000	0.0000000E+000	0.0000000E+000	-1.75556	0.0000000E+000	0.0000000E+000	0.0000000E+000	1.75556	32.6265	88.2444	9.81044e-07
222.061	7.6843	0.46568	7.6984	-3.46797	210.884	0.449754	0.00993352	1539.08	5.63165	1	10	0.010503	0.00136431	0	4.34034e-05	0.129659	0.00785755	0.129897	3.46797	5631.65	92929.1	93099.6	-86.532	0.0000000E+000	0.0000000E+000	0.0000000E+000	86.532	0.0000000E+000	0.0000000E+000	0.0000000E+000	-86.532	0.0000000E+000	0.0000000E+000	0.0000000E+000	-3.46797	0.0000000E+000	0.0000000E+000	0.0000000E+000	3.46797	16.5012	86.532	6.92164e-07
102.667	7.74092	0.942034	7.79803	-6.93851	211.823	0.449763	0.0107236	1645.59	24.0151	1	10	0.0105095	0.00134772	0	4.71915e-05	0.127298	0.0154916	0.128238	6.93851	24015.1	197338	198794	-83.0615	0.0000000E+000	0.0000000E+000	0.0000000E+000	83.0615	0.0000000E+000	0.0000000E+000	0.0000000E+000	-83.0615	0.0000000E+000	0.0000000E+000	0.0000000E+000	-6.93851	0.0000000E+000	0.0000000E+000	0.0000000E+000	6.93851	8.21724	83.0615	2.35097e-06
47.4443	7.85039	1.92886	8.08388	-13.8043	212.735	0.449755	0.0115286	1739.14	99.0141	1	10	0.010516	0.00130086	0	5.16998e-05	0.12013	0.0295163	0.123703	13.8043	99014.1	402984	414969	-76.1957	0.0000000E+000	0.0000000E+000	0.0000000E+000	76.1957	0.0000000E+000	0.0000000E+000	0.0000000E+000	-76.1957	0.0000000E+000	0.0000000E+000	0.0000000E+000	-13.8043	0.0000000E+000	0.0000000E+000	0.0000000E+000	13.8043	4.06996	76.1957	2.26331e-06
21.9144	8.03803	3.95677	8.95913	-26.209	213.603	0.449744	0.010569	1835.47	358.013	1	10	0.0105288	0.0011752	0	5.5049e-05	0.100142	0.0492958	0.111618	26.209	358013	727290	810632	-63.791	0.0000000E+000	0.0000000E+000	0.0000000E+000	63.791	0.0000000E+000	0.0000000E+000	0.0000000E+000	-63.791	0.0000000E+000	0.0000000E+000	0.0000000E+000	-26.209	0.0000000E+000	0.0000000E+000	0.0000000E+000	26.209	2.03146	63.791	3.33328e-06
10.1329	8.3243	8.133	11.6379	-44.334	214.53	0.449766	0.00888626	1931.23	943.169	1	10	0.0105366	0.000905371	0	6.12858e-05	0.0614613	0.0600489	0.0859265	44.334	943169	965353	1.34962e+06	-45.666	0.0000000E+000	0.0000000E+000	0.0000000E+000	45.666	0.0000000E+000	0.0000000E+000	0.0000000E+000	-45.666	0.0000000E+000	0.0000000E+000	0.0000000E+000	-44.334	0.0000000E+000	0.0000000E+000	0.0000000E+000	44.334	1.02352	45.666	3.36333e-06
4.68375	8.88229	17.0594	19.2333	-62.4955	215.58	0.449761	0.000421525	1991.87	1567.05	1	11	0.010546	0.000548323	0	6.58369e-05	0.0240114	0.0461166	0.0519932	62.4955	1.56705e+06	815913	1.76674e+06	-27.5045	0.0000000E+000	0.0000000E+000	0.0000000E+000	27.5045	0.0000000E+000	0.0000000E+000	0.0000000E+000	-27.5045	0.0000000E+000	0.0000000E+000	0.0000000E+000	-62.4955	0.0000000E+000	0.0000000E+000	0.0000000E+000	62.4955	0.520667	27.5045	2.82479e-06
2.16533	9.73967	36.0355	37.3286	-74.8755	217.293	0.449772	0.00108158	2039.7	1900.84	1	11	0.0105516	0.000282669	0	5.88271e-05	0.00698975	0.0258612	0.0267891	74.8755	1.90084e+06	513758	1.96904e+06	-15.1245	0.0000000E+000	0.0000000E+000	0.0000000E+000	15.1245	0.0000000E+000	0.0000000E+000	0.0000000E+000	-15.1245	0.0000000E+000	0.0000000E+000	0.0000000E+000	-74.8755	0.0000000E+000	0.0000000E+000	0.0000000E+000	74.8755	0.27028	15.1245	-2.23659e-08
1.00006	11.424	76.2051	77.0566	-81.4742	221.633	0.449772	0.000302716	2088.38	2042.47	1	12	0.010551	0.000136926	0	6.75876e-05	0.00192398	0.0128341	0.0129775	81.4742	2.04247e+06	306191	2.0653e+06	-8.52583	0.0000000E+000	0.0000000E+000	0.0000000E+000	8.52583	0.0000000E+000	0.0000000E+000	0.0000000E+000	-8.52583	0.0000000E+000	0.0000000E+000	0.0000000E+000	-81.4742	0.0000000E+000	0.0000000E+000	0.0000000E+000	81.4742	0.149912	8.52582	2.42796e-06