File: ACS_Catal_2026/Figures_Na_K/main_figures/data/EC/20251112_2-148_alpha_reproducibility/20251112_2-148_006_gamma_reproducibility_2_Na2_stopped_01_CVA_C02.mpt
EC-Lab ASCII FILE
Nb header lines : 66

Cyclic Voltammetry Advanced

Run on channel : 2 (SN 69290)
User :
CE vs. WE compliance from -10 V to 10 V
Electrode connection : standard
Potential control : Ewe
Ewe ctrl range : min = -1.00 V, max = 1.00 V
Safety Limits :
	Do not start on E overload
Acquisition started on : 11/12/2025 20:59:02.055
Loaded Setting File :  C:\Users\User\Documents\EC-Lab\Data\Yatsuzuka\20251112_2-148_alpha_reproducibility\20251112_2-148_002_alpha_reproducibility_2_K1.mps
Saved on :
	File : 20251112_2-148_006_gamma_reproducibility_2_Na2_01_CVA_C02.mpr
	Directory : C:\Users\User\Documents\EC-Lab\Data\Yatsuzuka\20251112_2-148_alpha_reproducibility\
	Host : 192.109.209.127
Device : SP-150e (SN .003883)
Address : 192.109.209.128
EC-Lab for windows v11.52 (software)
Internet server v11.52 (firmware)
Command interpretor v11.50 (firmware)
Electrode material :
Initial state :
Electrolyte :
Comments :
Electrode surface area : 0.001 cm2
Characteristic mass : 0.001 g
Equivalent Weight : 0.000 g/eq.
Density : 0.000 g/cm3
Volume (V) : 0.001 cm3
Cycle Definition : Charge/Discharge alternance
Ei (V)              0.350
vs.                 Ref
ti (h:m:s)          0:00:10.0000
dti (s)             0.0000
dE/dt               10.000
dE/dt unit          mV/s
E1 (V)              0.450
vs.                 Ref
t1 (h:m:s)          0:00:0.0000
dt1 (s)             0.1000
Step percent        50
N                   10
E range min (V)     -1.000
E range max (V)     1.000
I Range             Auto
I Range min         Unset
I Range max         Unset
I Range init        Unset
Bandwidth           5
E2 (V)              0.350
vs.                 Ref
t2 (h:m:s)          0:00:0.0000
dt2 (s)             0.1000
nc cycles           9
nr                  1
Reverse Scan        0
Ef (V)              0.000
vs.                 Eoc
tf (h:m:s)          0:00:0.0000
dtf (s)             0.1000

mode	ox/red	error	control changes	Ns changes	counter inc.	time/s	control/V	Ewe/V	<I>/mA	cycle number	(Q-Qo)/C	I Range	Ns	step time/s	P/W
2	1	0	1	0	0	0.000000000000000E+000	0.349989	0.352376	23.2962	1	0.0000000E+000	9	0	0.000000000000000E+000	0.00820903
2	1	0	1	0	0	0.2773	0.352761	0.352318	3.62952	1	-6.33459e-05	9	0	0.000000000000000E+000	0.00127874
2	1	0	1	0	0	0.5769	0.355757	0.354847	3.75225	1	3.28965e-06	9	0	0.000000000000000E+000	0.00133148
2	1	0	1	0	0	0.8765	0.358754	0.357928	3.54086	1	0.000118142	9	0	0.2996	0.00126738
2	1	0	1	0	0	1.1762	0.36175	0.361375	3.27036	1	0.000226685	9	0	0.000000000000000E+000	0.00118182
2	1	0	1	0	0	1.4759	0.364747	0.364962	3.12122	1	0.00031996	9	0	0.000000000000000E+000	0.00113913
2	1	0	1	0	0	1.7755	0.367743	0.366826	2.76915	1	0.000424123	9	0	0.000000000000000E+000	0.00101579
2	1	0	1	0	0	2.0751	0.370739	0.369831	2.61899	1	0.000554369	9	0	0.000000000000000E+000	0.000968585
2	1	0	1	0	0	2.3748	0.373737	0.373433	2.11528	1	0.000676876	9	0	0.000000000000000E+000	0.000789917
2	1	0	1	0	0	2.6744	0.376731	0.375572	2.20645	1	0.00084206	9	0	0.000000000000000E+000	0.000828681
2	1	0	1	0	0	2.9741	0.379729	0.379682	1.28754	1	0.00096632	9	0	0.000000000000000E+000	0.000488856
2	1	0	1	0	0	3.2737	0.382725	0.382797	1.41138	1	0.00112463	9	0	0.000000000000000E+000	0.000540272
2	1	0	1	0	0	3.5733	0.385722	0.385684	1.0263	1	0.00126953	9	0	0.000000000000000E+000	0.000395829
2	1	0	1	0	0	3.873	0.388718	0.387538	0.985312	1	0.00142572	9	0	0.000000000000000E+000	0.000381846
2	0	0	1	0	0	4.1727	0.391715	0.390365	0.70132	1	0.0016126	9	0	0.000000000000000E+000	0.000273771
2	0	0	1	0	0	4.4723	0.394711	0.393775	0.351448	1	0.00179968	9	0	0.000000000000000E+000	0.000138391
2	0	0	1	0	0	4.7719	0.397707	0.397125	0.091181	1	0.00199063	9	0	0.000000000000000E+000	3.62103e-05
2	0	0	1	0	0	5.0716	0.400705	0.398679	-0.0300011	1	0.00219342	9	0	0.000000000000000E+000	-1.19608e-05
2	0	0	1	0	0	5.3712	0.403699	0.402783	-0.155732	1	0.00241872	9	0	0.000000000000000E+000	-6.27263e-05
2	0	0	1	0	0	5.6709	0.406697	0.40571	-0.368542	1	0.00266074	9	0	0.000000000000000E+000	-0.000149521
2	0	0	1	0	0	5.9705	0.409693	0.40856	-0.626873	1	0.00289457	9	0	0.000000000000000E+000	-0.000256115
2	0	0	1	0	0	6.2701	0.41269	0.411686	-0.821069	1	0.00315129	9	0	0.000000000000000E+000	-0.000338022
2	0	0	1	0	0	6.5698	0.415686	0.41498	-0.941154	1	0.00342221	9	0	0.000000000000000E+000	-0.00039056
2	0	0	1	0	0	6.8695	0.418683	0.417591	-1.10967	1	0.0037145	9	0	0.000000000000000E+000	-0.000463387
2	0	0	1	0	0	7.1691	0.421679	0.420887	-1.38045	1	0.00400377	9	0	0.000000000000000E+000	-0.000581014
2	0	0	1	0	0	7.4687	0.424675	0.425399	-1.57651	1	0.00432344	9	0	0.000000000000000E+000	-0.000670645
2	0	0	1	0	0	7.7684	0.427672	0.426794	-1.72242	1	0.00465171	9	0	0.000000000000000E+000	-0.000735119
2	0	0	1	0	0	8.0681	0.430668	0.429441	-1.91021	1	0.004998	9	0	0.000000000000000E+000	-0.000820322
2	0	0	1	0	0	8.3677	0.433665	0.433851	-2.231	1	0.00534333	9	0	0.000000000000000E+000	-0.00096792
2	0	0	1	0	0	8.6673	0.436661	0.436648	-2.36071	1	0.00571809	9	0	0.000000000000000E+000	-0.0010308
2	0	0	1	0	0	8.9669	0.439658	0.438151	-2.59569	1	0.00610713	9	0	0.000000000000000E+000	-0.0011373
2	0	0	1	0	0	9.2666	0.442654	0.442381	-2.7316	1	0.00649243	9	0	0.000000000000000E+000	-0.00120841
2	0	0	1	0	0	9.5663	0.445651	0.44565	-2.7661	1	0.00690588	9	0	0.000000000000000E+000	-0.00123271
2	0	0	1	0	0	9.8659	0.448647	0.448322	-2.75999	1	0.00733566	9	0	0.000000000000000E+000	-0.00123736
2	1	0	1	0	0	10.0763	0.449246	0.449436	5.1757	1	0.00783578	9	0	0.000000000000000E+000	0.00232615
2	1	0	1	0	0	10.376	0.44625	0.445763	4.80213	1	0.0082414	9	0	0.000000000000000E+000	0.00214061
2	1	0	1	0	0	10.6757	0.443253	0.442715	5.06189	1	0.0086189	9	0	0.000000000000000E+000	0.00224097
2	1	0	1	0	0	10.9753	0.440257	0.439981	5.05192	1	0.0089911	9	0	0.000000000000000E+000	0.00222275
2	1	0	1	0	0	11.2749	0.437261	0.435403	4.99039	1	0.00934165	9	0	0.000000000000000E+000	0.00217283
2	1	0	1	0	0	11.5746	0.434264	0.433246	4.77319	1	0.00967596	9	0	0.000000000000000E+000	0.00206797
2	1	0	1	0	0	11.8743	0.431268	0.431207	4.93757	1	0.00999087	9	0	0.000000000000000E+000	0.00212911
2	1	0	1	0	0	12.1739	0.428271	0.427064	4.83341	1	0.0103017	9	0	0.000000000000000E+000	0.00206417
2	1	0	1	0	0	12.4735	0.425275	0.425015	4.47871	1	0.0105875	9	0	0.0998	0.00190352
2	1	0	1	0	0	12.7731	0.422278	0.421495	4.21457	1	0.0108502	9	0	0.3994	0.00177642
2	1	0	1	0	0	13.0728	0.419282	0.418359	3.76233	1	0.0111187	9	0	0.6991	0.00157401
2	1	0	1	0	0	13.3725	0.416285	0.415758	3.55879	1	0.0113717	9	0	0.9988	0.00147959
2	1	0	1	0	0	13.6721	0.413289	0.412928	2.93341	1	0.0116022	9	0	0.000000000000000E+000	0.00121129
2	1	0	1	0	0	13.9717	0.410293	0.410539	2.29499	1	0.0118179	9	0	0.000000000000000E+000	0.000942183
2	1	0	1	0	0	14.2714	0.407296	0.406774	1.80029	1	0.0120405	9	0	0.000000000000000E+000	0.000732309
2	1	0	1	0	0	14.5711	0.4043	0.404553	1.25515	1	0.0122489	9	0	0.000000000000000E+000	0.000507775
2	0	0	1	0	0	14.8707	0.401303	0.401407	0.563662	1	0.0124277	9	0	0.000000000000000E+000	0.000226258
2	0	0	1	0	0	15.1703	0.398307	0.397519	0.0989738	1	0.0126148	9	0	0.000000000000000E+000	3.9344e-05
2	0	0	1	0	0	15.47	0.395309	0.393694	-0.0204972	1	0.012791	9	0	0.000000000000000E+000	-8.06964e-06
2	0	0	1	0	0	15.7696	0.392315	0.391903	-0.838545	1	0.0129517	9	0	0.000000000000000E+000	-0.000328629
2	0	0	1	0	0	16.0693	0.389317	0.388447	-1.10641	1	0.0131135	9	0	0.000000000000000E+000	-0.000429781
2	0	0	1	0	0	16.3689	0.386321	0.386244	-1.48601	1	0.0132748	9	0	0.000000000000000E+000	-0.000573962
2	0	0	1	0	0	16.6685	0.383325	0.382854	-2.02676	1	0.0134256	9	0	0.000000000000000E+000	-0.000775954
2	0	0	1	0	0	16.9682	0.380328	0.379837	-2.64336	1	0.0135551	9	0	0.000000000000000E+000	-0.00100405
2	0	0	1	0	0	17.2679	0.377332	0.377029	-2.64551	1	0.0137044	9	0	0.000000000000000E+000	-0.000997432
2	0	0	1	0	0	17.5675	0.374335	0.373976	-3.43787	1	0.0138305	9	0	0.000000000000000E+000	-0.00128568
2	0	0	1	0	0	17.8671	0.371339	0.369875	-3.8239	1	0.0139697	9	0	0.000000000000000E+000	-0.00141436
2	0	0	1	0	0	18.1668	0.368341	0.368742	-3.40707	1	0.014111	9	0	0.000000000000000E+000	-0.00125633
2	0	0	1	0	0	18.4664	0.365347	0.364198	-2.07309	1	0.0143211	9	0	0.000000000000000E+000	-0.000755016
2	0	0	1	0	0	18.7661	0.362349	0.362179	-3.99977	1	0.0145061	9	0	0.000000000000000E+000	-0.00144863
2	0	0	1	0	0	19.0657	0.359353	0.358974	-3.86546	1	0.0145908	9	0	0.000000000000000E+000	-0.0013876
2	0	0	1	0	0	19.3653	0.356356	0.355817	-3.46843	1	0.0146861	9	0	0.000000000000000E+000	-0.00123413
2	0	0	1	0	0	19.665	0.35336	0.35334	-3.23421	1	0.0147782	9	0	0.000000000000000E+000	-0.00114277
2	0	0	1	0	0	19.9647	0.350364	0.350064	-3.13259	1	0.0148516	9	0	0.000000000000000E+000	-0.00109661
2	0	0	1	0	1	20.1311	0.351312	0.350055	-0.483926	2	0.0148039	9	0	0.000000000000000E+000	-0.000169401
2	0	0	1	0	1	20.4307	0.354309	0.35338	-0.83638	2	0.0148688	9	0	0.000000000000000E+000	-0.00029556
2	0	0	1	0	1	20.7303	0.357305	0.357314	-1.17558	2	0.01494	9	0	0.000000000000000E+000	-0.000420052
2	0	0	1	0	1	21.0299	0.360302	0.359618	-1.64812	2	0.0150126	9	0	0.000000000000000E+000	-0.000592692
2	0	0	1	0	1	21.3296	0.363298	0.362383	-1.93098	2	0.0151003	9	0	0.000000000000000E+000	-0.000699754
2	0	0	1	0	1	21.6293	0.366295	0.366121	-1.63011	2	0.0152361	9	0	0.000000000000000E+000	-0.000596817
2	0	0	1	0	1	21.9289	0.369291	0.36892	-2.45179	2	0.0154653	9	0	0.000000000000000E+000	-0.000904513
2	0	0	1	0	1	22.2285	0.372288	0.37146	-1.86403	2	0.015555	9	0	0.000000000000000E+000	-0.000692413
2	0	0	1	0	1	22.5282	0.375284	0.375196	-3.1416	2	0.0160389	9	0	0.000000000000000E+000	-0.00117872
2	0	0	1	0	1	22.8279	0.37828	0.378325	-3.18724	2	0.0161543	9	0	0.000000000000000E+000	-0.00120581
2	0	0	1	0	1	23.1275	0.381277	0.380495	-3.59979	2	0.0162455	9	0	0.000000000000000E+000	-0.0013697
2	0	0	1	0	1	23.4271	0.384273	0.38234	-3.55522	2	0.0163832	9	0	0.000000000000000E+000	-0.0013593
2	0	0	1	0	1	23.7268	0.387271	0.386617	-3.57312	2	0.016524	9	0	0.000000000000000E+000	-0.00138143
2	0	0	1	0	1	24.0264	0.390266	0.38929	-3.23583	2	0.016706	9	0	0.000000000000000E+000	-0.00125968
2	0	0	1	0	1	24.3261	0.393263	0.392554	-2.90576	2	0.016898	9	0	0.000000000000000E+000	-0.00114067
2	0	0	1	0	1	24.6257	0.396259	0.395231	-3.61328	2	0.0170168	9	0	0.000000000000000E+000	-0.00142808
2	0	0	1	0	1	24.9253	0.399256	0.399214	-3.22298	2	0.0173671	9	0	0.000000000000000E+000	-0.00128666
2	0	0	1	0	1	25.225	0.402252	0.401841	-2.3569	2	0.017507	9	0	0.0499	-0.000947101
2	0	0	1	0	1	25.5247	0.405248	0.405358	-1.97488	2	0.0176932	9	0	0.3496	-0.000800532
2	0	0	1	0	1	25.8243	0.408245	0.407585	-1.58173	2	0.0178807	9	0	0.000000000000000E+000	-0.000644692
2	0	0	1	0	1	26.1239	0.411241	0.410394	-1.12043	2	0.0180899	9	0	0.000000000000000E+000	-0.000459817
2	0	0	1	0	1	26.4236	0.414239	0.41391	-0.780017	2	0.0183121	9	0	0.000000000000000E+000	-0.000322857
2	0	0	1	0	1	26.7232	0.417233	0.417119	-0.401008	2	0.0185586	9	0	0.000000000000000E+000	-0.000167268
2	0	0	1	0	1	26.9894	0.419906	0.417104	-47.415	2	0.0185226	9	0	0.0215	-0.019777