File: ACS_Catal_2026/Figures_Na_K/main_figures/data/EC/20251112_2-148_alpha_reproducibility/20251112_2-148_002_alpha_reproducibility_2_K2_02_PEIS_C02.mpt
EC-Lab ASCII FILE
Nb header lines : 63

Potentio Electrochemical Impedance Spectroscopy

Run on channel : 2 (SN 69290)
User :
CE vs. WE compliance from -10 V to 10 V
Electrode connection : standard
Potential control : Ewe
Ewe ctrl range : min = -1.00 V, max = 1.00 V
Safety Limits :
	Do not start on E overload
Acquisition started on : 11/12/2025 14:40:45.077
Loaded Setting File :  C:\Users\User\Documents\EC-Lab\Data\Yatsuzuka\20251112_2-148_alpha_reproducibility\20251112_2-148_002_alpha_reproducibility_2_K1.mps
Saved on :
	File : 20251112_2-148_002_alpha_reproducibility_2_K2_02_PEIS_C02.mpr
	Directory : C:\Users\User\Documents\EC-Lab\Data\Yatsuzuka\20251112_2-148_alpha_reproducibility\
	Host : 192.109.209.127
Device : SP-150e (SN .003883)
Address : 192.109.209.128
EC-LAB for windows v11.52 (software)
Internet server v11.52 (firmware)
Command interpretor v11.50 (firmware)
Electrode material :
Initial state :
Electrolyte :
Comments :
Electrode surface area : 0.001 cm2
Characteristic mass : 0.001 g
Equivalent Weight : 0.000 g/eq.
Density : 0.000 g/cm3
Volume (V) : 0.001 cm3
Cycle Definition : Charge/Discharge alternance
Mode                Single sine
E (V)               0.4500
vs.                 Ref
tE (h:m:s)          0:00:0.0000
record              0
dI                  0.000
unit dI             mA
dt (s)              0.000
fi                  500.000
unit fi             kHz
ff                  1.000
unit ff             Hz
Nd                  6
Points              per decade
spacing             Logarithmic
Va (mV)             10.0
pw                  0.10
Na                  2
corr                0
E range min (V)     -1.000
E range max (V)     1.000
I Range             Auto
Bandwidth           5
nc cycles           0
goto Ns'            0
nr cycles           0
inc. cycle          0

freq/Hz	Re(Z)/Ohm	-Im(Z)/Ohm	|Z|/Ohm	Phase(Z)/deg	time/s	<Ewe>/V	<I>/mA	Cs/uF	Cp/uF	cycle number	I Range	|Ewe|/V	|I|/A	Ns	(Q-Qo)/mA.h	Re(Y)/Ohm-1	Im(Y)/Ohm-1	|Y|/Ohm-1	Phase(Y)/deg	Re(C)/nF	Im(C)/nF	|C|/nF	Phase(C)/deg	Re(M)	Im(M)	|M|	Phase(M)/deg	Re(Permittivity)	Im(Permittivity)	|Permittivity|	Phase(Permittivity)/deg	Re(Resistivity)/Ohm.cm	Im(Resistivity)/Ohm.cm	|Resistivity|/Ohm.cm	Phase(Resistivity)/deg	Re(Conductivity)/mS/cm	Im(Conductivity)/mS/cm	|Conductivity|/mS/cm	Phase(Conductivity)/deg	Tan(Delta)	Loss Angle(Delta)/deg	dq/mA.h	Pwe/W	Rwe/Ohm
500019	12.5908	-2.32678	12.804	10.4702	201.82	0.449769	0.0180023	-0.136798	-0.00451753	1	10	0.00435678	0.000340269	0	3.12802e-05	0.0768005	-0.0141928	0.0781009	-10.4702	-4.51753	24.4454	24.8594	-100.47	0.0000000E+000	0.0000000E+000	0.0000000E+000	100.47	0.0000000E+000	0.0000000E+000	0.0000000E+000	-100.47	0.0000000E+000	0.0000000E+000	0.0000000E+000	10.4702	0.0000000E+000	0.0000000E+000	0.0000000E+000	-10.4702	5.41124	79.5298	3.12802e-05	8.09688e-06	24983.9
231063	6.71344	-0.6731	6.74709	5.72544	202.665	0.449545	0.0168277	-1.02332	-0.0101844	1	10	0.00998646	0.00148011	0	3.84267e-05	0.147473	-0.0147858	0.148212	-5.72544	-10.1844	101.579	102.088	-95.7254	0.0000000E+000	0.0000000E+000	0.0000000E+000	95.7254	0.0000000E+000	0.0000000E+000	0.0000000E+000	-95.7254	0.0000000E+000	0.0000000E+000	0.0000000E+000	5.72544	0.0000000E+000	0.0000000E+000	0.0000000E+000	-5.72544	9.9739	84.2746	3.74493e-06	7.56482e-06	26714.6
106786	6.08307	-0.0514082	6.08328	0.484197	203.645	0.449523	0.016962	-28.9916	-0.00207043	1	10	0.0101131	0.00166244	0	4.25977e-05	0.164379	-0.00138917	0.164385	-0.484197	-2.07044	244.991	245	-90.4842	0.0000000E+000	0.0000000E+000	0.0000000E+000	90.4842	0.0000000E+000	0.0000000E+000	0.0000000E+000	-90.4842	0.0000000E+000	0.0000000E+000	0.0000000E+000	0.484197	0.0000000E+000	0.0000000E+000	0.0000000E+000	-0.484197	118.329	89.5158	5.43371e-06	7.62479e-06	26501.8
49352.4	6.06876	0.0436248	6.06892	-0.411858	204.49	0.449539	0.0187146	73.9229	0.00381964	1	10	0.0106286	0.00175131	0	4.11957e-05	0.16477	0.00118443	0.164774	0.411858	3.81963	531.361	531.375	-89.5881	0.0000000E+000	0.0000000E+000	0.0000000E+000	89.5881	0.0000000E+000	0.0000000E+000	0.0000000E+000	-89.5881	0.0000000E+000	0.0000000E+000	0.0000000E+000	-0.411858	0.0000000E+000	0.0000000E+000	0.0000000E+000	0.411858	139.113	89.5881	1.69997e-07	8.41296e-06	24020.8
22806.6	6.0876	0.0531151	6.08783	-0.499901	205.335	0.449535	0.0162497	131.384	0.0100012	1	10	0.0104744	0.00172056	0	4.3605e-05	0.164256	0.00143316	0.164262	0.499901	10.0012	1146.26	1146.3	-89.5001	0.0000000E+000	0.0000000E+000	0.0000000E+000	89.5001	0.0000000E+000	0.0000000E+000	0.0000000E+000	-89.5001	0.0000000E+000	0.0000000E+000	0.0000000E+000	-0.499901	0.0000000E+000	0.0000000E+000	0.0000000E+000	0.499901	114.611	89.5001	3.4311e-06	7.30482e-06	27664.2
10540.4	6.10443	0.0524375	6.10465	-0.492163	206.179	0.449538	0.016177	287.953	0.0212463	1	10	0.0103263	0.00169155	0	4.86506e-05	0.163803	0.00140708	0.163809	0.492163	21.2464	2473.36	2473.45	-89.5078	0.0000000E+000	0.0000000E+000	0.0000000E+000	89.5078	0.0000000E+000	0.0000000E+000	0.0000000E+000	-89.5078	0.0000000E+000	0.0000000E+000	0.0000000E+000	-0.492163	0.0000000E+000	0.0000000E+000	0.0000000E+000	0.492163	116.413	89.5078	1.33977e-06	7.27217e-06	27788.7
4871.56	6.1267	0.0535959	6.12694	-0.501206	207.392	0.44953	0.0163709	609.566	0.0466441	1	10	0.0101147	0.00165086	0	5.00884e-05	0.163207	0.00142773	0.163214	0.501206	46.6441	5332.03	5332.23	-89.4988	0.0000000E+000	0.0000000E+000	0.0000000E+000	89.4988	0.0000000E+000	0.0000000E+000	0.0000000E+000	-89.4988	0.0000000E+000	0.0000000E+000	0.0000000E+000	-0.501206	0.0000000E+000	0.0000000E+000	0.0000000E+000	0.501206	114.313	89.4988	3.88913e-07	7.35921e-06	27459.1
2250.72	6.14204	0.0692361	6.14243	-0.645839	208.322	0.449536	0.0166748	1021.33	0.129763	1	10	0.010986	0.00178854	0	5.45118e-05	0.162792	0.00183507	0.162802	0.645839	129.762	11511.5	11512.2	-89.3542	0.0000000E+000	0.0000000E+000	0.0000000E+000	89.3542	0.0000000E+000	0.0000000E+000	0.0000000E+000	-89.3542	0.0000000E+000	0.0000000E+000	0.0000000E+000	-0.645839	0.0000000E+000	0.0000000E+000	0.0000000E+000	0.645839	88.7115	89.3542	3.65015e-06	7.49594e-06	26959
1040.33	6.14687	0.114137	6.14793	-1.06377	209.474	0.449539	0.0169657	1340.36	0.461975	1	10	0.0102268	0.00166346	0	6.23016e-05	0.162628	0.00301975	0.162656	1.06377	461.974	24879.7	24883.9	-88.9362	0.0000000E+000	0.0000000E+000	0.0000000E+000	88.9362	0.0000000E+000	0.0000000E+000	0.0000000E+000	-88.9362	0.0000000E+000	0.0000000E+000	0.0000000E+000	-1.06377	0.0000000E+000	0.0000000E+000	0.0000000E+000	1.06377	53.855	88.9362	1.0652e-06	7.62674e-06	26497
480.769	6.16877	0.213707	6.17247	-1.98413	210.404	0.449534	0.016108	1549.05	1.85688	1	10	0.0102834	0.00166602	0	6.68598e-05	0.161913	0.0056092	0.16201	1.98413	1856.88	53599.9	53632.1	-88.0159	0.0000000E+000	0.0000000E+000	0.0000000E+000	88.0159	0.0000000E+000	0.0000000E+000	0.0000000E+000	-88.0159	0.0000000E+000	0.0000000E+000	0.0000000E+000	-1.98413	0.0000000E+000	0.0000000E+000	0.0000000E+000	1.98413	28.8655	88.0159	2.38625e-06	7.24111e-06	27907.5
222.061	6.19472	0.432387	6.20979	-3.99272	211.328	0.449522	0.0158544	1657.59	8.03649	1	10	0.0102882	0.00165677	0	7.16448e-05	0.160645	0.0112129	0.161036	3.99272	8036.48	115137	115417	-86.0073	0.0000000E+000	0.0000000E+000	0.0000000E+000	86.0073	0.0000000E+000	0.0000000E+000	0.0000000E+000	-86.0073	0.0000000E+000	0.0000000E+000	0.0000000E+000	-3.99272	0.0000000E+000	0.0000000E+000	0.0000000E+000	3.99272	14.3268	86.0073	2.97199e-06	7.12692e-06	28353
102.667	6.25059	0.866068	6.31031	-7.88855	212.265	0.449534	0.0162218	1789.93	33.7162	1	10	0.0102962	0.00163165	0	7.37816e-05	0.156971	0.0217496	0.158471	7.88855	33716.2	243337	245662	-82.1115	0.0000000E+000	0.0000000E+000	0.0000000E+000	82.1115	0.0000000E+000	0.0000000E+000	0.0000000E+000	-82.1115	0.0000000E+000	0.0000000E+000	0.0000000E+000	-7.88855	0.0000000E+000	0.0000000E+000	0.0000000E+000	7.88855	7.21721	82.1115	7.16062e-07	7.29222e-06	27711.8
47.4443	6.34865	1.75747	6.58742	-15.4734	213.176	0.449521	0.0148737	1908.75	135.86	1	10	0.0103106	0.00156519	0	7.56345e-05	0.146302	0.0405001	0.151805	15.4734	135860	490780	509238	-74.5266	0.0000000E+000	0.0000000E+000	0.0000000E+000	74.5266	0.0000000E+000	0.0000000E+000	0.0000000E+000	-74.5266	0.0000000E+000	0.0000000E+000	0.0000000E+000	-15.4734	0.0000000E+000	0.0000000E+000	0.0000000E+000	15.4734	3.61239	74.5266	4.0326e-07	6.68605e-06	30222.6
21.9144	6.47748	3.60806	7.41457	-29.1185	214.044	0.449522	0.0139862	2012.87	476.641	1	10	0.0103161	0.00139133	0	7.56987e-05	0.117824	0.0656299	0.13487	29.1185	476641	855704	979498	-60.8815	0.0000000E+000	0.0000000E+000	0.0000000E+000	60.8815	0.0000000E+000	0.0000000E+000	0.0000000E+000	-60.8815	0.0000000E+000	0.0000000E+000	0.0000000E+000	-29.1185	0.0000000E+000	0.0000000E+000	0.0000000E+000	29.1185	1.79528	60.8815	-2.08454e-06	6.2871e-06	32140.5
10.1329	6.62264	7.4911	9.99879	-48.5211	214.974	0.449534	0.0164995	2096.71	1176.89	1	10	0.0103316	0.00103328	0	8.36248e-05	0.0662424	0.0749291	0.100012	48.5211	1.17689e+06	1.04045e+06	1.57086e+06	-41.4789	0.0000000E+000	0.0000000E+000	0.0000000E+000	41.4789	0.0000000E+000	0.0000000E+000	0.0000000E+000	-41.4789	0.0000000E+000	0.0000000E+000	0.0000000E+000	-48.5211	0.0000000E+000	0.0000000E+000	0.0000000E+000	48.5211	0.884068	41.4789	6.50288e-06	7.41711e-06	27245.2
4.68375	7.0797	15.8576	17.3662	-65.9414	216.024	0.449548	0.00198705	2142.84	1786.71	1	11	0.0103276	0.000594693	0	7.56791e-05	0.023475	0.0525808	0.0575832	65.9414	1.78671e+06	797686	1.95669e+06	-24.0586	0.0000000E+000	0.0000000E+000	0.0000000E+000	24.0586	0.0000000E+000	0.0000000E+000	0.0000000E+000	-24.0586	0.0000000E+000	0.0000000E+000	0.0000000E+000	-65.9414	0.0000000E+000	0.0000000E+000	0.0000000E+000	65.9414	0.446455	24.0586	-8.33047e-06	8.93276e-07	226238
2.16533	7.93378	33.5627	34.4877	-76.7002	217.737	0.449555	0.00199459	2189.98	2074.08	1	11	0.0103326	0.000299604	0	8.64023e-05	0.00667041	0.0282182	0.0289959	76.7002	2.07408e+06	490286	2.13124e+06	-13.2998	0.0000000E+000	0.0000000E+000	0.0000000E+000	13.2998	0.0000000E+000	0.0000000E+000	0.0000000E+000	-13.2998	0.0000000E+000	0.0000000E+000	0.0000000E+000	-76.7002	0.0000000E+000	0.0000000E+000	0.0000000E+000	76.7002	0.236387	13.2998	6.24642e-06	8.96678e-07	225387
1.00006	9.72625	70.9572	71.6207	-82.195	222.077	0.449557	0.000569306	2242.83	2201.47	1	12	0.0103325	0.000144266	0	8.01143e-05	0.00189613	0.0138331	0.0139624	82.195	2.20147e+06	301760	2.22205e+06	-7.80502	0.0000000E+000	0.0000000E+000	0.0000000E+000	7.80502	0.0000000E+000	0.0000000E+000	0.0000000E+000	-7.80502	0.0000000E+000	0.0000000E+000	0.0000000E+000	-82.195	0.0000000E+000	0.0000000E+000	0.0000000E+000	82.195	0.137072	7.80502	-5.06676e-06	2.55935e-07	789658