File: ACS_Catal_2026/Figures_Na_K/main_figures/data/EC/20251112_2-148_alpha_reproducibility/20251112_2-148_001_alpha_reproducibility_1_K1_01_CVA_C01.mpt
EC-Lab ASCII FILE
Nb header lines : 66

Cyclic Voltammetry Advanced

Run on channel : 1 (SN 69187)
User :
CE vs. WE compliance from -10 V to 10 V
Electrode connection : standard
Potential control : Ewe
Ewe ctrl range : min = -1.00 V, max = 1.00 V
Safety Limits :
	Do not start on E overload
Acquisition started on : 11/12/2025 13:18:25.019
Loaded Setting File :  C:\Users\User\Documents\EC-Lab\Data\Yatsuzuka\20251030_2-147_gamma_reproducibility\20251030_2-147_001_gamma1_K_1.mps
Saved on :
	File : 20251112_2-148_001_alpha_reproducibility_1_K1_01_CVA_C01.mpr
	Directory : C:\Users\User\Documents\EC-Lab\Data\Yatsuzuka\20251112_2-148_alpha_reproducibility\
	Host : 192.109.209.127
Device : SP-150e (SN .003883)
Address : 192.109.209.128
EC-LAB for windows v11.52 (software)
Internet server v11.52 (firmware)
Command interpretor v11.50 (firmware)
Electrode material :
Initial state :
Electrolyte :
Comments :
Electrode surface area : 0.001 cm2
Characteristic mass : 0.001 g
Equivalent Weight : 0.000 g/eq.
Density : 0.000 g/cm3
Volume (V) : 0.001 cm3
Cycle Definition : Charge/Discharge alternance
Ei (V)              0.350
vs.                 Ref
ti (h:m:s)          0:00:10.0000
dti (s)             0.0000
dE/dt               10.000
dE/dt unit          mV/s
E1 (V)              0.450
vs.                 Ref
t1 (h:m:s)          0:00:0.0000
dt1 (s)             0.1000
Step percent        50
N                   10
E range min (V)     -1.000
E range max (V)     1.000
I Range             Auto
I Range min         Unset
I Range max         Unset
I Range init        Unset
Bandwidth           5
E2 (V)              0.350
vs.                 Ref
t2 (h:m:s)          0:00:0.0000
dt2 (s)             0.1000
nc cycles           9
nr                  1
Reverse Scan        0
Ef (V)              0.000
vs.                 Eoc
tf (h:m:s)          0:00:0.0000
dtf (s)             0.1000

mode	ox/red	error	control changes	Ns changes	counter inc.	time/s	control/V	Ewe/V	<I>/mA	cycle number	(Q-Qo)/C	I Range	Ns	step time/s	Pwe/W	Rwe/Ohm
2	1	0	0	0	0	0.000000000000000E+000	0.34995	0.349743	0.00458474	1	0.0000000E+000	13	0	0.000000000000000E+000	1.60348e-06	76284.2
2	1	0	1	0	0	1.9247	0.369198	0.368984	0.0418817	1	8.1333e-05	13	0	1.8974	1.54537e-05	8810.16
2	1	0	1	0	0	3.8721	0.388671	0.38843	0.0404433	1	0.00016071	13	0	3.8448	1.57094e-05	9604.31
2	1	0	1	0	0	5.8193	0.408144	0.407918	0.0364062	1	0.000235676	13	0	5.792	1.48507e-05	11204.6
2	1	0	1	0	0	7.7667	0.427617	0.42738	0.0360925	1	0.000306585	13	0	7.7394	1.54252e-05	11841.2
2	1	0	1	0	0	9.7439	0.447389	0.447163	0.0514146	1	0.00037455	12	0	9.7166	2.29907e-05	8697.21
2	1	0	1	0	0	11.628	0.433759	0.433546	-0.032952	1	0.000346932	12	0	1.5978	-1.42862e-05	13156.9
2	0	0	1	0	0	13.5753	0.414285	0.414123	-0.0460801	1	0.000296941	12	0	3.5451	-1.90828e-05	8987.02
2	0	0	1	0	0	15.5226	0.394813	0.394539	-0.051876	1	0.000237635	12	0	5.4924	-2.04671e-05	7605.42
2	1	0	1	0	0	17.4699	0.375339	0.375096	-0.0443989	1	0.000170331	12	0	7.4397	-1.66538e-05	8448.32
2	0	0	1	0	0	19.4172	0.355867	0.355581	-0.0520518	1	9.56024e-05	12	0	9.387	-1.85086e-05	6831.28
2	1	0	1	0	1	21.2323	0.362307	0.362131	0.0306454	2	0.000116961	12	0	1.1984	1.10976e-05	11816.8
2	0	0	1	0	1	23.1796	0.381781	0.381545	0.0239256	2	0.000190962	12	0	3.1457	9.12867e-06	15947.2
2	0	0	1	0	1	25.1269	0.401253	0.401005	0.0469824	2	0.000261088	12	0	5.093	1.88402e-05	8535.22
2	1	0	1	0	1	27.0742	0.420727	0.420466	0.0508819	2	0.000327628	12	0	7.0403	2.13941e-05	8263.56
2	1	0	1	0	1	29.0215	0.440199	0.439977	0.0339805	2	0.000391305	12	0	8.9876	1.49507e-05	12947.9
2	1	0	1	0	1	30.8757	0.441248	0.440998	-0.0232069	2	0.000403092	12	0	0.8489	-1.02342e-05	19002.9
2	0	0	1	0	1	32.8229	0.421775	0.421479	-0.0445204	2	0.000351321	12	0	2.7961	-1.87644e-05	9467.09
2	0	0	1	0	1	34.7703	0.402302	0.402087	-0.014863	2	0.000292322	12	0	4.7435	-5.97621e-06	27053
2	1	0	1	0	1	36.7175	0.382829	0.382555	-0.0480589	2	0.000226864	12	0	6.6907	-1.83852e-05	7960.12
2	0	0	1	0	1	38.6649	0.363356	0.363057	-0.0359	2	0.000154723	12	0	8.6381	-1.30337e-05	10113
2	1	0	1	0	0	40.4799	0.354818	0.354597	0.0245949	3	0.000117275	12	0	0.4769	8.72126e-06	14417.5
2	0	0	1	0	0	42.4272	0.37429	0.374098	0.0360412	3	0.000190798	12	0	2.4242	1.34829e-05	10379.7
2	1	0	1	0	0	44.3745	0.393764	0.393499	0.0462893	3	0.000260995	12	0	4.3715	1.82148e-05	8500.86
2	1	0	1	0	0	46.3218	0.413236	0.413034	0.0178298	3	0.000327955	12	0	6.3188	7.36432e-06	23165.3
2	1	0	1	0	0	48.2691	0.43271	0.432485	0.0481312	3	0.000391258	12	0	8.2661	2.0816e-05	8985.55
2	1	0	1	0	0	50.1233	0.448737	0.448497	-0.00927206	3	0.000443112	12	0	0.1273	-4.15849e-06	48370.8
2	0	0	1	0	0	52.0706	0.429264	0.42903	-0.0445866	3	0.000394322	12	0	2.0746	-1.9129e-05	9622.41
2	0	0	1	0	0	54.0179	0.409791	0.409537	-0.0164928	3	0.000337641	12	0	4.0219	-6.75441e-06	24831.2
2	1	0	1	0	0	55.9652	0.390318	0.389991	-0.0420245	3	0.000274479	12	0	5.9692	-1.63892e-05	9280.08
2	0	0	1	0	0	57.9125	0.370846	0.370595	-0.0409609	3	0.000205199	12	0	7.9165	-1.51799e-05	9047.55
2	0	0	1	0	0	59.8598	0.351372	0.351142	-0.0240473	3	0.000127957	12	0	9.8638	-8.444e-06	14602.2
2	1	0	1	0	1	61.6749	0.366801	0.366559	0.029459	4	0.000184173	12	0	1.6753	1.07985e-05	12443
2	1	0	1	0	1	63.6221	0.386274	0.38606	0.0530374	4	0.000255232	12	0	3.6225	2.04756e-05	7279.01
2	1	0	1	0	1	65.5695	0.405747	0.405505	0.0158345	4	0.000322812	12	0	5.5699	6.42096e-06	25608.9
2	1	0	1	0	1	67.5168	0.425221	0.424959	0.0384599	4	0.000386943	12	0	7.5172	1.63439e-05	11049.4
2	1	0	1	0	1	69.4641	0.444693	0.44445	0.0426556	4	0.000448005	12	0	9.4645	1.89583e-05	10419.5
2	1	0	1	0	1	71.3182	0.436755	0.436496	-0.0206159	4	0.000432781	12	0	1.2982	-8.99877e-06	21172.7
2	0	0	1	0	1	73.2655	0.417281	0.417011	-0.0465402	4	0.000378866	12	0	3.2455	-1.94078e-05	8960.23
2	0	0	1	0	1	75.2128	0.397809	0.397496	-0.0271005	4	0.000318453	12	0	5.1928	-1.07723e-05	14667.5
2	0	0	1	0	1	77.1601	0.378335	0.378094	-0.0210431	4	0.000251308	12	0	7.1401	-7.95626e-06	17967.6
2	1	0	1	0	1	79.1074	0.358863	0.358585	-0.056949	4	0.000177382	12	0	9.0874	-2.0421e-05	6296.6
2	0	0	1	0	0	80.9225	0.359311	0.359091	0.0536989	5	0.000174631	12	0	0.8988	1.92828e-05	6687.12
2	1	0	1	0	0	82.8698	0.378784	0.378548	0.044004	5	0.000246474	12	0	2.8461	1.66576e-05	8602.58
2	1	0	1	0	0	84.8171	0.398257	0.397954	0.0163463	5	0.000315232	12	0	4.7934	6.50506e-06	24345.2
2	0	0	1	0	0	86.7644	0.41773	0.417528	0.0363894	5	0.000380141	12	0	6.7407	1.51936e-05	11473.9
2	1	0	1	0	0	88.7117	0.437203	0.436973	0.0471568	5	0.000441664	12	0	8.688	2.06062e-05	9266.39
2	0	0	1	0	0	90.5659	0.444244	0.44401	-0.0120194	5	0.000468138	12	0	0.5493	-5.33674e-06	36941.1
2	1	0	1	0	0	92.5131	0.424771	0.424524	-0.0387248	5	0.000416841	12	0	2.4965	-1.64396e-05	10962.6
2	0	0	1	0	0	94.4605	0.405298	0.405	-0.0461433	5	0.000358932	12	0	4.4439	-1.86881e-05	8777
2	0	0	1	0	0	96.4077	0.385825	0.385515	-0.0224256	5	0.000294678	12	0	6.3911	-8.64539e-06	17190.9
2	0	0	1	0	0	98.3551	0.366352	0.366113	-0.0269219	5	0.000223417	12	0	8.3385	-9.85647e-06	13599.1
2	1	0	1	0	1	100.17	0.351822	0.351548	0.0234448	6	0.000164082	12	0	0.1498	8.24197e-06	14994.7
2	1	0	1	0	1	102.117	0.371295	0.371062	0.0537358	6	0.000235819	12	0	2.0972	1.99393e-05	6905.3
2	1	0	1	0	1	104.065	0.390768	0.390521	0.0409449	6	0.000305441	12	0	4.0444	1.59899e-05	9537.73
2	1	0	1	0	1	106.012	0.410241	0.410007	0.0161203	6	0.0003716	12	0	5.9918	6.60944e-06	25434.2
2	0	0	1	0	1	107.959	0.429714	0.429453	0.0309136	6	0.000434083	12	0	7.939	1.32759e-05	13892
2	1	0	1	0	1	109.907	0.449187	0.448971	0.0471429	6	0.000493912	12	0	9.8864	2.11658e-05	9523.62
2	0	0	1	0	1	111.761	0.43226	0.432009	-0.0118442	6	0.000452836	12	0	1.7476	-5.11682e-06	36474.2
2	0	0	1	0	1	113.708	0.412787	0.412555	-0.0212702	6	0.000397057	12	0	3.6949	-8.77514e-06	19395.9
2	1	0	1	0	1	115.655	0.393314	0.393077	-0.0467029	6	0.000335311	12	0	5.6422	-1.83578e-05	8416.54
2	0	0	1	0	1	117.603	0.373841	0.373586	-0.0537916	6	0.000267237	12	0	7.5895	-2.00958e-05	6945.06
2	0	0	1	0	1	119.55	0.354368	0.354102	-0.0276328	6	0.000191734	12	0	9.5368	-9.78481e-06	12814.6
2	1	0	1	0	0	121.365	0.363805	0.363578	0.033393	7	0.00022327	12	0	1.3482	1.2141e-05	10887.8
2	1	0	1	0	0	123.312	0.383279	0.382992	0.0160345	7	0.000294356	12	0	3.2955	6.14108e-06	23885.5
2	0	0	1	0	0	125.26	0.402751	0.402517	0.0354733	7	0.000361496	12	0	5.2428	1.42786e-05	11347
2	1	0	1	0	0	127.207	0.422225	0.422016	0.0494902	7	0.000424858	12	0	7.1901	2.08856e-05	8527.26
2	1	0	1	0	0	129.154	0.441697	0.441485	0.0278917	7	0.000485225	12	0	9.1374	1.23138e-05	15828.6
2	1	0	1	0	0	131.008	0.43975	0.439503	-0.0236105	7	0.000486354	12	0	0.9987	-1.03769e-05	18614.7
2	1	0	1	0	0	132.956	0.420277	0.420034	-0.0453045	7	0.000433398	12	0	2.9459	-1.90295e-05	9271.35
2	0	0	1	0	0	134.903	0.400804	0.400508	-0.0370563	7	0.000374139	12	0	4.8933	-1.48414e-05	10808.1
2	0	0	1	0	0	136.85	0.381331	0.381045	-0.0169237	7	0.000308379	12	0	6.8405	-6.44868e-06	22515.5
2	1	0	1	0	0	138.798	0.361858	0.361568	-0.0417353	7	0.000235735	12	0	8.7879	-1.50902e-05	8663.35
2	1	0	1	0	1	140.613	0.356316	0.35607	0.0375586	8	0.000210174	12	0	0.5992	1.33735e-05	9480.39
2	1	0	1	0	1	142.56	0.375788	0.37556	0.0554083	8	0.000281484	12	0	2.5465	2.08091e-05	6778.04
2	1	0	1	0	1	144.507	0.395262	0.394986	0.0256563	8	0.000349875	12	0	4.4938	1.01339e-05	15395.2
2	0	0	1	0	1	146.455	0.414734	0.414507	0.0230159	8	0.000414742	12	0	6.4411	9.54025e-06	18009.6
2	1	0	1	0	1	148.402	0.434208	0.433981	0.0474879	8	0.00047577	12	0	8.3884	2.06088e-05	9138.78
2	0	0	1	0	1	150.256	0.44724	0.446987	-0.0122055	8	0.00051773	12	0	0.2771	-5.45569e-06	36621.9
2	1	0	1	0	1	152.203	0.427766	0.42748	-0.0438472	8	0.000467779	12	0	2.2244	-1.87438e-05	9749.3
2	0	0	1	0	1	154.151	0.408294	0.408012	-0.0233952	8	0.000410966	12	0	4.1717	-9.54553e-06	17440
2	0	0	1	0	1	156.098	0.38882	0.38856	-0.0277746	8	0.000347595	12	0	6.119	-1.07921e-05	13989.7
2	0	0	1	0	1	158.045	0.369348	0.3691	-0.0567939	8	0.000278183	12	0	8.0663	-2.09626e-05	6498.93
2	0	0	1	0	1	159.973	0.350074	0.34982	-0.0792855	8	0.000201424	12	0	9.9937	-2.77356e-05	4412.15
2	1	0	1	0	0	161.808	0.368299	0.368021	0.016236	9	0.000267656	12	0	1.7976	5.9752e-06	22666.9
2	1	0	1	0	0	163.755	0.387772	0.387501	0.0456444	9	0.000337392	12	0	3.7448	1.76873e-05	8489.58
2	1	0	1	0	0	165.702	0.407245	0.407036	0.0357774	9	0.000402884	12	0	5.6922	1.45627e-05	11376.9
2	1	0	1	0	0	167.649	0.426718	0.426456	0.0176577	9	0.000465272	12	0	7.6394	7.53022e-06	24151.4
2	1	0	1	0	0	169.597	0.446191	0.44599	0.0455007	9	0.000524586	12	0	9.5868	2.02929e-05	9801.83
2	0	0	1	0	0	171.451	0.435257	0.434981	-0.0142856	9	0.000500185	12	0	1.448	-6.21394e-06	30449
2	0	0	1	0	0	173.398	0.415783	0.415556	-0.0449863	9	0.000445796	12	0	3.3953	-1.86943e-05	9237.39
2	0	0	1	0	0	175.346	0.396311	0.396029	-0.0149682	9	0.000385084	12	0	5.3426	-5.92785e-06	26458
2	0	0	1	0	0	177.293	0.376837	0.376572	-0.0550036	9	0.000318234	12	0	7.2899	-2.07128e-05	6846.33
2	0	0	1	0	0	179.24	0.357365	0.357075	-0.0211793	9	0.000244326	12	0	9.2372	-7.56261e-06	16859.6
2	1	0	1	0	1	181.055	0.360809	0.360547	0.0192557	10	0.000252859	12	0	1.0761	6.94259e-06	18724.2
2	1	0	1	0	1	183.003	0.380282	0.380052	0.0541553	10	0.000323458	12	0	3.0234	2.05818e-05	7017.82
2	1	0	1	0	1	184.95	0.399755	0.39949	0.0176652	10	0.000390628	12	0	4.9707	7.05709e-06	22614.5
2	0	0	1	0	1	186.897	0.419228	0.419055	0.0451827	10	0.000454011	12	0	6.918	1.8934e-05	9274.66
2	1	0	1	0	1	188.844	0.438701	0.438443	0.0170608	10	0.000514176	12	0	8.8653	7.48018e-06	25698.9
2	0	0	1	0	1	190.699	0.442746	0.442507	-0.0320334	10	0.000531656	12	0	0.6991	-1.4175e-05	13813.9
2	0	0	1	0	1	192.646	0.423273	0.423023	-0.0235852	10	0.000479511	12	0	2.6463	-9.97708e-06	17936
2	0	0	1	0	1	194.593	0.4038	0.403511	-0.0330713	10	0.000421544	12	0	4.5937	-1.33446e-05	12201.2
2	0	0	1	0	1	196.54	0.384327	0.384044	-0.0327668	10	0.000356959	12	0	6.5409	-1.25839e-05	11720.5
2	0	0	1	0	1	198.488	0.364854	0.364585	-0.0490585	10	0.000286231	12	0	8.4883	-1.7886e-05	7431.63
2	0	0	0	0	1	199.971	0.35	0.349762	-0.0204886	10	0.000226559	12	0	9.9712	-7.16614e-06	17071.1