File: ACS_Catal_2026/Figures_Na_K/main_figures/data/EC/20251112_2-148_alpha_reproducibility/20251112_2-148_003_alpha_Na_first_1_K2_03_CVA_C01.mpt
EC-Lab ASCII FILE
Nb header lines : 66

Cyclic Voltammetry Advanced

Run on channel : 1 (SN 69187)
User :
CE vs. WE compliance from -10 V to 10 V
Electrode connection : standard
Potential control : Ewe
Ewe ctrl range : min = -1.00 V, max = 1.00 V
Safety Limits :
	Do not start on E overload
Acquisition started on : 11/12/2025 17:41:45.774
Loaded Setting File :  C:\Users\User\Documents\EC-Lab\Data\Yatsuzuka\20251030_2-147_gamma_reproducibility\20251030_2-147_001_gamma1_K_1.mps
Saved on :
	File : 20251112_2-148_003_alpha_Na_first_1_K2_03_CVA_C01.mpr
	Directory : C:\Users\User\Documents\EC-Lab\Data\Yatsuzuka\20251112_2-148_alpha_reproducibility\
	Host : 192.109.209.127
Device : SP-150e (SN .003883)
Address : 192.109.209.128
EC-Lab for windows v11.52 (software)
Internet server v11.52 (firmware)
Command interpretor v11.50 (firmware)
Electrode material :
Initial state :
Electrolyte :
Comments :
Electrode surface area : 0.001 cm2
Characteristic mass : 0.001 g
Equivalent Weight : 0.000 g/eq.
Density : 0.000 g/cm3
Volume (V) : 0.001 cm3
Cycle Definition : Charge/Discharge alternance
Ei (V)              0.450
vs.                 Ref
ti (h:m:s)          0:00:10.0000
dti (s)             0.0000
dE/dt               5.000
dE/dt unit          mV/s
E1 (V)              0.700
vs.                 Ref
t1 (h:m:s)          0:00:0.0000
dt1 (s)             0.1000
Step percent        50
N                   10
E range min (V)     -1.000
E range max (V)     1.000
I Range             10 mA
I Range min         Unset
I Range max         Unset
I Range init        Unset
Bandwidth           5
E2 (V)              0.450
vs.                 Ref
t2 (h:m:s)          0:00:0.0000
dt2 (s)             0.1000
nc cycles           14
nr                  1
Reverse Scan        0
Ef (V)              0.000
vs.                 Eoc
tf (h:m:s)          0:00:0.0000
dtf (s)             0.1000

mode	ox/red	error	control changes	Ns changes	counter inc.	time/s	control/V	Ewe/V	<I>/mA	cycle number	(Q-Qo)/C	I Range	Ns	step time/s	P/W
2	0	0	0	0	0	231.752	0.449961	0.449697	-0.0101764	1	0.0000000E+000	11	0	0.000000000000000E+000	-4.57628e-06
2	1	0	1	0	0	244.49	0.513648	0.513372	0.0113979	1	0.000155692	11	0	12.6824	5.85138e-06
2	1	0	1	0	0	257.272	0.577559	0.577305	0.0184979	1	0.000333816	11	0	25.4646	1.06789e-05
2	1	0	0	0	0	270.054	0.64147	0.641246	0.178505	1	0.00113508	11	0	38.2469	0.000114465
2	1	0	0	0	0	282.619	0.695695	0.695487	1.28522	1	0.0102222	11	0	50.8117	0.000893855
2	1	0	1	0	0	295.401	0.631783	0.631553	0.0929526	1	0.0167056	11	0	63.594	5.87045e-05
2	1	0	1	0	0	308.184	0.567872	0.56767	-0.00390196	1	0.0169918	11	0	2.197	-2.21503e-06
2	0	0	1	0	0	320.966	0.50396	0.503675	-0.0108499	1	0.0168896	11	0	14.9793	-5.46482e-06
2	1	0	1	0	1	333.605	0.459273	0.458996	0.0108056	2	0.0167948	11	0	1.7975	4.95974e-06
2	1	0	1	0	1	346.388	0.523184	0.522986	0.0101691	2	0.0169412	11	0	14.5798	5.31828e-06
2	1	0	1	0	1	359.17	0.587096	0.586916	0.0227581	2	0.0171237	11	0	27.3621	1.33571e-05
2	1	0	1	0	1	371.952	0.651006	0.650754	0.264713	2	0.0182768	11	0	40.1443	0.000172263
2	1	0	0	0	1	384.507	0.686208	0.686003	0.911723	2	0.0288768	11	0	52.6992	0.000625445
2	1	0	1	0	1	397.289	0.622297	0.622028	0.0532055	2	0.0332371	11	0	65.4815	3.30953e-05
2	1	0	1	0	1	410.072	0.558386	0.558133	-0.00556137	2	0.0333694	11	0	3.8946	-3.10399e-06
2	0	0	0	0	1	422.854	0.494474	0.494235	-0.0107063	2	0.0332585	11	0	16.6769	-5.2914e-06
2	1	0	1	0	0	435.494	0.46876	0.468546	0.0100059	3	0.0332029	11	0	3.6949	4.68822e-06
2	0	0	1	0	0	448.276	0.532671	0.532486	0.0101552	3	0.0333488	11	0	16.4772	5.40747e-06
2	1	0	1	0	0	461.058	0.596583	0.596353	0.0269002	3	0.0335546	11	0	29.2595	1.6042e-05
2	1	0	1	0	0	473.84	0.660494	0.660247	0.3907	3	0.0352657	11	0	42.0417	0.000257958
2	1	0	1	0	0	486.395	0.676722	0.676445	0.664825	3	0.0467498	11	0	54.5965	0.000449717
2	1	0	1	0	0	499.178	0.61281	0.612561	0.0295683	3	0.0497017	11	0	67.3788	1.81124e-05
2	1	0	1	0	0	511.96	0.548899	0.548675	-0.00655114	3	0.0497404	11	0	5.792	-3.59445e-06
2	0	0	0	0	0	524.742	0.484987	0.484771	-0.0113118	3	0.0496228	11	0	18.5743	-5.48365e-06
2	1	0	1	0	1	537.382	0.478247	0.477999	0.010133	4	0.0496078	11	0	5.5923	4.84358e-06
2	1	0	1	0	1	550.164	0.542158	0.541876	0.0109591	4	0.0497537	11	0	18.3745	5.93847e-06
2	1	0	0	0	1	562.946	0.606069	0.605851	0.0390883	4	0.0499979	11	0	31.1568	2.36817e-05
2	1	0	1	0	1	575.729	0.669981	0.669767	0.561587	4	0.0525255	11	0	43.9391	0.000376132
2	1	0	1	0	1	588.283	0.667235	0.667046	0.460509	4	0.0639838	11	0	56.4939	0.000307181
2	1	0	1	0	1	601.066	0.603323	0.603102	0.0167351	4	0.0659005	11	0	69.2762	1.0093e-05
2	1	0	1	0	1	613.848	0.539411	0.539221	-0.00699063	4	0.0658817	11	0	7.7892	-3.76949e-06
2	0	0	1	0	1	626.63	0.475501	0.475212	-0.0119618	4	0.0657595	11	0	20.5714	-5.68438e-06
2	1	0	1	0	0	639.27	0.487734	0.487552	0.0116895	5	0.0657873	11	0	7.4897	5.69925e-06
2	1	0	1	0	0	652.052	0.551645	0.551416	0.0135187	5	0.065936	11	0	20.2719	7.45442e-06
2	1	0	0	0	0	664.835	0.615556	0.615327	0.0534299	5	0.0662424	11	0	33.0542	3.28769e-05
2	1	0	1	0	0	677.617	0.679468	0.679281	0.776312	5	0.0699239	11	0	45.8365	0.000527334
2	1	0	1	0	0	690.172	0.657748	0.657509	0.305005	5	0.0806609	11	0	58.3913	0.000200543
2	1	0	1	0	0	702.954	0.593836	0.593607	0.00675249	5	0.0818558	11	0	71.1736	4.00833e-06
2	1	0	1	0	0	715.736	0.529924	0.529691	-0.00742943	5	0.0818006	11	0	9.8864	-3.9353e-06
2	0	0	1	0	0	728.518	0.466014	0.465734	-0.0116595	5	0.0816742	11	0	22.6686	-5.43023e-06
2	1	0	1	0	1	741.158	0.49722	0.49696	0.0126696	6	0.0817435	11	0	9.387	6.29627e-06
2	1	0	1	0	1	753.94	0.561132	0.560892	0.0124723	6	0.0818947	11	0	22.1693	6.99559e-06
2	1	0	0	0	1	766.723	0.625043	0.624867	0.0804985	6	0.0823005	11	0	34.9516	5.03008e-05
2	1	0	1	0	1	779.505	0.688955	0.688765	1.04062	6	0.0875241	11	0	47.7339	0.00071674
2	1	0	1	0	1	792.06	0.64826	0.648073	0.198228	6	0.0970312	11	0	60.2887	0.000128466
2	1	0	1	0	1	804.842	0.58435	0.584124	0.00164029	6	0.09775	11	0	0.000000000000000E+000	9.58132e-07
2	0	0	0	0	1	817.624	0.520438	0.52021	-0.00978459	6	0.0976721	11	0	11.4841	-5.09005e-06
2	0	0	1	0	1	830.407	0.456527	0.456294	-0.0112575	6	0.0975419	11	0	24.2664	-5.13673e-06
2	0	0	1	0	0	843.046	0.506707	0.506468	0.0104112	7	0.0976536	11	0	11.2844	5.27296e-06
2	1	0	1	0	0	855.829	0.570619	0.570441	0.0160198	7	0.09781	11	0	24.0667	9.13838e-06
2	1	0	1	0	0	868.611	0.63453	0.634334	0.120721	7	0.0983742	11	0	36.8489	7.65775e-05
2	1	0	1	0	0	881.393	0.698441	0.698165	1.32185	7	0.105571	11	0	49.6312	0.000922871
2	1	0	1	0	0	893.948	0.638774	0.638553	0.121617	7	0.112953	11	0	62.186	7.76588e-05
2	0	0	1	0	0	906.73	0.574863	0.574608	-0.00255096	7	0.113357	11	0	0.8988	-1.4658e-06
2	0	0	0	0	0	919.513	0.510951	0.510709	-0.00945835	7	0.113263	11	0	13.6811	-4.83047e-06
2	1	0	1	0	1	932.152	0.452283	0.452037	0.0098925	8	0.113138	11	0	0.3995	4.47177e-06
2	1	0	1	0	1	944.934	0.516193	0.516001	0.0121943	8	0.113281	11	0	13.1817	6.29227e-06
2	1	0	0	0	1	957.717	0.580105	0.579865	0.0188725	8	0.113447	11	0	25.964	1.09435e-05
2	1	0	1	0	1	970.499	0.644017	0.643868	0.182249	8	0.114253	11	0	38.7463	0.000117344
2	1	0	1	0	1	983.054	0.693199	0.693006	1.0709	8	0.123078	11	0	51.3011	0.000742141
2	1	0	1	0	1	995.836	0.629287	0.629079	0.0720661	8	0.128387	11	0	64.0834	4.53353e-05
2	1	0	1	0	1	1008.62	0.565376	0.565181	-0.00468081	8	0.128595	11	0	2.896	-2.6455e-06
2	1	0	1	0	1	1021.4	0.501465	0.501205	-0.00937288	8	0.12849	11	0	15.6782	-4.69773e-06
2	1	0	1	0	0	1034.04	0.46177	0.461517	0.010521	9	0.128405	11	0	2.2969	4.85562e-06
2	1	0	1	0	0	1046.82	0.525681	0.525485	0.0118307	9	0.128549	11	0	15.0791	6.21688e-06
2	1	0	0	0	0	1059.6	0.589592	0.589357	0.0212108	9	0.12873	11	0	27.8614	1.25007e-05
2	1	0	1	0	0	1072.39	0.653504	0.653237	0.273507	9	0.12992	11	0	40.6437	0.000178665
2	1	0	1	0	0	1084.94	0.683712	0.683499	0.777297	9	0.140014	11	0	53.1985	0.000531282
2	1	0	1	0	0	1097.72	0.6198	0.619551	0.041523	9	0.143614	11	0	65.9808	2.57256e-05
2	1	0	1	0	0	1110.51	0.555888	0.555653	-0.00538496	9	0.143701	11	0	4.7934	-2.99217e-06
2	0	0	1	0	0	1123.29	0.491978	0.491732	-0.01002	9	0.143589	11	0	17.5756	-4.92718e-06
2	1	0	1	0	1	1135.93	0.471256	0.471042	0.0105985	10	0.143544	11	0	4.1942	4.99232e-06
2	1	0	1	0	1	1148.71	0.535168	0.534921	0.0106137	10	0.143688	11	0	16.9765	5.67752e-06
2	1	0	1	0	1	1161.49	0.599079	0.598829	0.0292988	10	0.143894	11	0	29.7587	1.7545e-05
2	1	0	1	0	1	1174.28	0.662991	0.662786	0.400415	10	0.145656	11	0	42.5411	0.00026539
2	1	0	1	0	1	1186.83	0.674224	0.673998	0.562696	10	0.156342	11	0	55.0959	0.000379256
2	1	0	1	0	1	1199.61	0.610314	0.610088	0.0225625	10	0.158772	11	0	67.8781	1.37651e-05
2	0	0	0	0	1	1212.39	0.546402	0.546157	-0.00644996	10	0.158783	11	0	6.491	-3.52269e-06
2	0	0	1	0	1	1225.18	0.482491	0.482253	-0.0110021	10	0.158665	11	0	19.2733	-5.30579e-06
2	1	0	1	0	0	1237.82	0.480743	0.480563	0.0108405	11	0.158661	11	0	6.0916	5.20953e-06
2	1	0	1	0	0	1250.6	0.544655	0.544412	0.0109939	11	0.158806	11	0	18.8739	5.98524e-06
2	1	0	1	0	0	1263.38	0.608565	0.608348	0.0387895	11	0.159052	11	0	31.6561	2.35975e-05
2	1	0	1	0	0	1276.16	0.672477	0.672279	0.56901	11	0.161642	11	0	44.4384	0.000382533
2	1	0	1	0	0	1288.72	0.664738	0.664516	0.377105	11	0.172139	11	0	56.9932	0.000250592
2	1	0	1	0	0	1301.5	0.600827	0.600601	0.0118237	11	0.173673	11	0	69.7755	7.10131e-06
2	0	0	0	0	0	1314.28	0.536915	0.536672	-0.00822901	11	0.173637	11	0	8.688	-4.41628e-06
2	0	0	1	0	0	1327.07	0.473004	0.472768	-0.0119734	11	0.173513	11	0	21.4703	-5.66066e-06
2	1	0	1	0	1	1339.7	0.49023	0.489984	0.0121308	12	0.17355	11	0	7.9889	5.94392e-06
2	1	0	0	0	1	1352.49	0.554141	0.553901	0.0129844	12	0.173696	11	0	20.7712	7.19204e-06
2	1	0	1	0	1	1365.27	0.618053	0.617856	0.055194	12	0.174007	11	0	33.5535	3.41019e-05
2	1	0	1	0	1	1378.05	0.681964	0.681805	0.782237	12	0.177757	11	0	46.3358	0.000533332
2	1	0	1	0	1	1390.61	0.655251	0.655021	0.249224	12	0.187456	11	0	58.8906	0.000163247
2	1	0	1	0	1	1403.39	0.591339	0.591103	0.00225966	12	0.188407	11	0	71.6729	1.33569e-06
2	0	0	1	0	1	1416.17	0.527429	0.527232	-0.00978891	12	0.188341	11	0	10.9847	-5.16102e-06
2	0	0	1	0	1	1428.95	0.463517	0.463285	-0.012226	12	0.188214	11	0	23.767	-5.66414e-06
2	1	0	1	0	0	1441.59	0.499717	0.499493	0.0100743	13	0.188293	11	0	9.8863	5.03203e-06
2	1	0	0	0	0	1454.38	0.563628	0.56341	0.0125125	13	0.188442	11	0	22.6686	7.04965e-06
2	1	0	1	0	0	1467.16	0.62754	0.627295	0.0846175	13	0.188857	11	0	35.4509	5.30802e-05
2	1	0	1	0	0	1479.94	0.69145	0.691222	1.03788	13	0.194151	11	0	48.2331	0.000717402
2	1	0	1	0	0	1492.49	0.645764	0.645582	0.160162	13	0.202315	11	0	60.788	0.000103398
2	1	0	1	0	0	1505.28	0.581852	0.581587	4.26474e-05	13	0.202874	11	0	0.000000000000000E+000	2.48032e-08
2	1	0	1	0	0	1518.06	0.517942	0.517733	-0.00804505	13	0.202789	11	0	12.5825	-4.16519e-06
2	0	0	1	0	0	1530.84	0.45403	0.453829	-0.0125878	13	0.202658	11	0	25.3648	-5.7127e-06
2	1	0	1	0	1	1543.48	0.509204	0.509011	0.0121147	14	0.202779	11	0	11.7837	6.16652e-06
2	1	0	0	0	1	1556.26	0.573115	0.57285	0.0147563	14	0.202934	11	0	24.566	8.45315e-06
2	1	0	1	0	1	1569.05	0.637026	0.636807	0.127136	14	0.203514	11	0	37.3482	8.09612e-05
2	1	0	1	0	1	1581.65	0.699964	0.699726	1.2843	14	0.210513	11	0	49.948	0.000898656
2	1	0	1	0	1	1594.38	0.636278	0.636056	0.0992812	14	0.216899	11	0	62.6853	6.31484e-05
2	0	0	0	0	1	1607.17	0.572366	0.57214	-0.00399017	14	0.217207	11	0	1.8973	-2.28293e-06
2	1	0	1	0	1	1619.95	0.508455	0.508247	-0.00841029	14	0.21711	11	0	14.6796	-4.2745e-06
2	1	0	1	0	0	1632.59	0.454779	0.454532	0.011192	15	0.216997	11	0	0.8988	5.08711e-06
2	1	0	1	0	0	1645.37	0.518691	0.51843	0.0111707	15	0.217139	11	0	13.6811	5.79121e-06
2	1	0	1	0	0	1658.15	0.582602	0.582345	0.0187419	15	0.217305	11	0	26.4633	1.09142e-05
2	1	0	1	0	0	1670.93	0.646513	0.646296	0.189317	15	0.218145	11	0	39.2456	0.000122355
2	1	0	1	0	0	1683.49	0.690702	0.690499	0.942358	15	0.226791	11	0	51.8004	0.000650697
2	1	0	1	0	0	1696.27	0.626791	0.626559	0.057338	15	0.231309	11	0	64.5827	3.59256e-05
2	0	0	0	0	0	1709.05	0.562879	0.562655	-0.00535027	15	0.231459	11	0	3.6949	-3.01036e-06
2	1	0	1	0	0	1721.84	0.498968	0.498726	-0.00879769	15	0.231353	11	0	16.4772	-4.38764e-06
2	0	0	1	0	0	1731.62	0.450011	0.449754	-0.0150503	15	0.231249	11	0	26.2657	-6.76893e-06