File: ACS_Catal_2026/Figures_Na_K/main_figures/data/EC/20251112_2-148_alpha_reproducibility/20251112_2-148_004_Na_first_2_K1_01_CVA_C02.mpt
EC-Lab ASCII FILE
Nb header lines : 66

Cyclic Voltammetry Advanced

Run on channel : 2 (SN 69290)
User :
CE vs. WE compliance from -10 V to 10 V
Electrode connection : standard
Potential control : Ewe
Ewe ctrl range : min = -1.00 V, max = 1.00 V
Safety Limits :
	Do not start on E overload
Acquisition started on : 11/12/2025 16:20:32.186
Loaded Setting File :  C:\Users\User\Documents\EC-Lab\Data\Yatsuzuka\20251112_2-148_alpha_reproducibility\20251112_2-148_002_alpha_reproducibility_2_K1.mps
Saved on :
	File : 20251112_2-148_004_Na_first_2_K1_01_CVA_C02.mpr
	Directory : C:\Users\User\Documents\EC-Lab\Data\Yatsuzuka\20251112_2-148_alpha_reproducibility\
	Host : 192.109.209.127
Device : SP-150e (SN .003883)
Address : 192.109.209.128
EC-Lab for windows v11.52 (software)
Internet server v11.52 (firmware)
Command interpretor v11.50 (firmware)
Electrode material :
Initial state :
Electrolyte :
Comments :
Electrode surface area : 0.001 cm2
Characteristic mass : 0.001 g
Equivalent Weight : 0.000 g/eq.
Density : 0.000 g/cm3
Volume (V) : 0.001 cm3
Cycle Definition : Charge/Discharge alternance
Ei (V)              0.350
vs.                 Ref
ti (h:m:s)          0:00:10.0000
dti (s)             0.0000
dE/dt               10.000
dE/dt unit          mV/s
E1 (V)              0.450
vs.                 Ref
t1 (h:m:s)          0:00:0.0000
dt1 (s)             0.1000
Step percent        50
N                   10
E range min (V)     -1.000
E range max (V)     1.000
I Range             Auto
I Range min         Unset
I Range max         Unset
I Range init        Unset
Bandwidth           5
E2 (V)              0.350
vs.                 Ref
t2 (h:m:s)          0:00:0.0000
dt2 (s)             0.1000
nc cycles           9
nr                  1
Reverse Scan        0
Ef (V)              0.000
vs.                 Eoc
tf (h:m:s)          0:00:0.0000
dtf (s)             0.1000

mode	ox/red	error	control changes	Ns changes	counter inc.	time/s	control/V	Ewe/V	<I>/mA	cycle number	(Q-Qo)/C	I Range	Ns	step time/s	P/W
2	1	0	0	0	0	0.000000000000000E+000	0.349989	0.34961	0.0219797	1	0.0000000E+000	12	0	0.000000000000000E+000	7.68431e-06
2	1	0	1	0	0	1.7255	0.367244	0.366764	0.0252382	1	6.17497e-05	12	0	1.698	9.25646e-06
2	1	0	1	0	0	3.4735	0.384723	0.384313	0.0231303	1	0.000122238	12	0	3.446	8.88925e-06
2	1	0	1	0	0	5.2214	0.402202	0.401816	0.0237339	1	0.00017862	12	0	5.1939	9.53668e-06
2	1	0	1	0	0	6.9693	0.419681	0.419216	0.0227917	1	0.000231067	12	0	6.9418	9.55465e-06
2	1	0	1	0	0	8.7173	0.437161	0.436698	0.0183939	1	0.000280413	12	0	8.6898	8.03258e-06
2	0	0	1	0	0	10.376	0.44625	0.445783	-0.0307584	1	0.000307875	12	0	0.3496	-1.37116e-05
2	0	0	1	0	0	12.1239	0.428771	0.428287	-0.0284893	1	0.000266819	12	0	2.0975	-1.22016e-05
2	0	0	1	0	0	13.8719	0.411291	0.410836	-0.0211719	1	0.000220189	12	0	3.8455	-8.69819e-06
2	0	0	1	0	0	15.6198	0.393812	0.393374	-0.0229737	1	0.000168515	12	0	5.5934	-9.03724e-06
2	0	0	1	0	0	17.3677	0.376333	0.375941	-0.0346321	1	0.000111201	12	0	7.3413	-1.30196e-05
2	0	0	1	0	0	19.1157	0.358854	0.358437	-0.0453118	1	4.7668e-05	12	0	9.0893	-1.62414e-05
2	1	0	1	0	1	20.7303	0.357305	0.356842	0.0442535	2	3.56924e-05	12	0	0.6992	1.57915e-05
2	1	0	1	0	1	22.4783	0.374785	0.374383	0.0271662	2	9.6559e-05	12	0	2.4472	1.01706e-05
2	1	0	1	0	1	24.2262	0.392265	0.391816	0.0224293	2	0.000154361	12	0	4.1951	8.78815e-06
2	1	0	1	0	1	25.9741	0.409743	0.409287	0.0334981	2	0.000208236	12	0	5.943	1.37103e-05
2	1	0	1	0	1	27.7221	0.427222	0.426763	0.0362863	2	0.000258486	12	0	7.691	1.54857e-05
2	1	0	1	0	1	29.4699	0.444702	0.444291	0.0206153	2	0.000306017	12	0	9.4388	9.1592e-06
2	0	0	1	0	1	31.1237	0.438759	0.438301	-0.0332287	2	0.000296031	12	0	1.0987	-1.45642e-05
2	0	0	1	0	1	32.8717	0.42128	0.420795	-0.0170102	2	0.000252277	12	0	2.8467	-7.15782e-06
2	0	0	1	0	1	34.6196	0.4038	0.403351	-0.0358207	2	0.00020359	12	0	4.5946	-1.44483e-05
2	0	0	1	0	1	36.3675	0.386321	0.385864	-0.0303858	2	0.000149856	12	0	6.3425	-1.17248e-05
2	0	0	1	0	1	38.1155	0.368842	0.368416	-0.0354674	2	8.99454e-05	12	0	8.0905	-1.30668e-05
2	0	0	1	0	1	39.8633	0.351362	0.350937	-0.0517717	2	2.35889e-05	12	0	9.8383	-1.81686e-05
2	1	0	1	0	0	41.4781	0.364796	0.364367	0.0449261	3	6.74121e-05	12	0	1.4484	1.63696e-05
2	1	0	1	0	0	43.2259	0.382276	0.381822	0.0371653	3	0.000126732	12	0	3.1962	1.41905e-05
2	1	0	1	0	0	44.9739	0.399755	0.399314	0.0215463	3	0.000182592	12	0	4.9442	8.60376e-06
2	0	0	1	0	0	46.7218	0.417233	0.416787	0.0297281	3	0.000234624	12	0	6.6921	1.23903e-05
2	1	0	1	0	0	48.4697	0.434714	0.434224	0.0369902	3	0.000283482	12	0	8.44	1.6062e-05
2	0	0	1	0	0	50.1235	0.448747	0.448265	-0.0187364	3	0.000322333	12	0	0.0999	-8.39885e-06
2	0	0	1	0	0	51.8715	0.431268	0.4308	-0.0236073	3	0.000282218	12	0	1.8479	-1.017e-05
2	0	0	1	0	0	53.6193	0.413788	0.413337	-0.0188725	3	0.000236274	12	0	3.5957	-7.80071e-06
2	0	0	1	0	0	55.3673	0.396309	0.395827	-0.021773	3	0.00018564	12	0	5.3437	-8.61835e-06
2	0	0	1	0	0	57.1152	0.378831	0.378359	-0.0359236	3	0.000129477	12	0	7.0916	-1.3592e-05
2	0	0	1	0	0	58.8631	0.361351	0.360917	-0.0477886	3	6.72534e-05	12	0	8.8395	-1.72477e-05
2	0	0	1	0	1	60.4778	0.354807	0.35441	0.0391932	4	3.75474e-05	12	0	0.4495	1.38905e-05
2	1	0	1	0	1	62.2257	0.372288	0.371871	0.0443583	4	9.81818e-05	12	0	2.1974	1.64956e-05
2	1	0	1	0	1	63.9737	0.389767	0.389297	0.0373802	4	0.000155873	12	0	3.9454	1.4552e-05
2	1	0	1	0	1	65.7216	0.407246	0.406806	0.0218331	4	0.000210077	12	0	5.6933	8.88183e-06
2	1	0	1	0	1	67.4695	0.424725	0.42429	0.0343238	4	0.000260381	12	0	7.4412	1.45633e-05
2	1	0	1	0	1	69.2175	0.442205	0.441791	0.0249327	4	0.000308264	12	0	9.1892	1.1015e-05
2	0	0	1	0	1	70.8712	0.441256	0.4408	-0.0151359	4	0.000310423	12	0	0.7991	-6.67192e-06
2	0	0	1	0	1	72.6191	0.423777	0.423296	-0.0262917	4	0.000267663	12	0	2.547	-1.11292e-05
2	0	0	1	0	1	74.3671	0.406297	0.405809	-0.0385832	4	0.000219782	12	0	4.295	-1.56574e-05
2	0	0	1	0	1	76.115	0.388818	0.388339	-0.0368838	4	0.000166826	12	0	6.0429	-1.43234e-05
2	0	0	1	0	1	77.8629	0.371339	0.370886	-0.0301492	4	0.000108224	12	0	7.7908	-1.11819e-05
2	0	0	1	0	1	79.6109	0.353859	0.353435	-0.0303368	4	4.3249e-05	12	0	9.5388	-1.07221e-05
2	1	0	1	0	0	81.2255	0.362299	0.361863	0.0368549	5	6.84946e-05	12	0	1.1986	1.33364e-05
2	1	0	1	0	0	82.9735	0.379779	0.37935	0.034627	5	0.000128054	12	0	2.9466	1.31357e-05
2	1	0	1	0	0	84.7214	0.397258	0.396806	0.0404787	5	0.000184222	12	0	4.6945	1.60622e-05
2	1	0	1	0	0	86.4693	0.414737	0.414283	0.0366133	5	0.000236446	12	0	6.4424	1.51683e-05
2	1	0	1	0	0	88.2173	0.432217	0.431723	0.0205496	5	0.000285674	12	0	8.1904	8.87172e-06
2	1	0	1	0	0	89.9934	0.450021	0.449573	0.0207266	5	0.00033217	12	0	9.9665	9.31812e-06
2	1	0	1	0	0	91.7188	0.432766	0.432313	-0.0211591	5	0.000293667	12	0	1.698	-9.14735e-06
2	0	0	1	0	0	93.4667	0.415287	0.414779	-0.0350433	5	0.000248401	12	0	3.4459	-1.45352e-05
2	0	0	1	0	0	95.2147	0.397807	0.397344	-0.0241255	5	0.000198307	12	0	5.1939	-9.58614e-06
2	0	0	1	0	0	96.9626	0.380328	0.37983	-0.0380635	5	0.000142996	12	0	6.9418	-1.44577e-05
2	0	0	1	0	0	98.7105	0.362849	0.362411	-0.0387942	5	8.12883e-05	12	0	8.6897	-1.40594e-05
2	1	0	1	0	1	100.325	0.35331	0.352942	0.0333626	6	4.11212e-05	12	0	0.2997	1.17751e-05
2	1	0	1	0	1	102.073	0.370789	0.370397	0.0299385	6	0.000101692	12	0	2.0476	1.10891e-05
2	1	0	1	0	1	103.821	0.388269	0.387869	0.0215322	6	0.00015973	12	0	3.7956	8.35169e-06
2	1	0	1	0	1	105.569	0.405749	0.405277	0.0340906	6	0.00021391	12	0	5.5435	1.38161e-05
2	1	0	1	0	1	107.317	0.423227	0.4228	0.0368744	6	0.000264375	12	0	7.2914	1.55905e-05
2	1	0	1	0	1	109.065	0.440706	0.440226	0.0180665	6	0.000312053	12	0	9.0394	7.95333e-06
2	0	0	1	0	1	110.719	0.442754	0.442305	-0.0284287	6	0.000321831	12	0	0.6992	-1.25742e-05
2	0	0	1	0	1	112.466	0.425275	0.424839	-0.0179381	6	0.000279289	12	0	2.4471	-7.6208e-06
2	0	0	1	0	1	114.214	0.407795	0.407329	-0.0180022	6	0.000232057	12	0	4.1951	-7.3328e-06
2	0	0	1	0	1	115.962	0.390316	0.389846	-0.0359088	6	0.000179967	12	0	5.943	-1.39989e-05
2	0	0	1	0	1	117.71	0.372837	0.372412	-0.044044	6	0.000122021	12	0	7.6909	-1.64025e-05
2	0	0	1	0	1	119.458	0.355358	0.354882	-0.0459425	6	5.7873e-05	12	0	9.4389	-1.63042e-05
2	1	0	1	0	0	121.073	0.360801	0.36037	0.0346103	7	7.18798e-05	12	0	0.9988	1.24725e-05
2	1	0	1	0	0	122.821	0.37828	0.377842	0.0229233	7	0.000131879	12	0	2.7468	8.66139e-06
2	1	0	1	0	0	124.569	0.39576	0.39533	0.0391287	7	0.000188019	12	0	4.4946	1.54687e-05
2	1	0	1	0	0	126.317	0.413239	0.412775	0.0235095	7	0.000240622	12	0	6.2426	9.70415e-06
2	1	0	1	0	0	128.065	0.430717	0.4302	0.0249393	7	0.000289664	12	0	7.9905	1.07289e-05
2	1	0	1	0	0	129.812	0.448198	0.447715	0.03546	7	0.000336363	12	0	9.7384	1.5876e-05
2	0	0	1	0	0	131.466	0.435263	0.434759	-0.0182474	7	0.000308693	12	0	1.4483	-7.93321e-06
2	0	0	1	0	0	133.214	0.417784	0.417339	-0.0325846	7	0.000264396	12	0	3.1963	-1.35988e-05
2	0	0	1	0	0	134.962	0.400304	0.399869	-0.032116	7	0.000214962	12	0	4.9441	-1.28422e-05
2	0	0	1	0	0	136.71	0.382825	0.382409	-0.0354422	7	0.000160686	12	0	6.6921	-1.35534e-05
2	0	0	1	0	0	138.458	0.365347	0.36487	-0.0307622	7	0.000100088	12	0	8.44	-1.12242e-05
2	1	0	1	0	1	140.073	0.350813	0.350319	0.0397954	8	4.29104e-05	12	0	0.05	1.39411e-05
2	1	0	1	0	1	141.821	0.368291	0.367845	0.0277045	8	0.000102949	12	0	1.7979	1.0191e-05
2	1	0	1	0	1	143.568	0.385772	0.385329	0.0226604	8	0.000161222	12	0	3.5458	8.73172e-06
2	1	0	1	0	1	145.316	0.403251	0.402809	0.0297528	8	0.00021573	12	0	5.2938	1.19847e-05
2	1	0	1	0	1	147.064	0.42073	0.420258	0.0241877	8	0.000266781	12	0	7.0417	1.01651e-05
2	1	0	1	0	1	148.812	0.438209	0.437716	0.0181309	8	0.000314602	12	0	8.7896	7.93618e-06
2	0	0	1	0	1	150.466	0.445251	0.444828	-0.0139139	8	0.000336385	12	0	0.4495	-6.18927e-06
2	0	0	1	0	1	152.214	0.427772	0.427279	-0.0266094	8	0.000295014	12	0	2.1974	-1.13696e-05
2	0	0	1	0	1	153.962	0.410293	0.409797	-0.0371202	8	0.000248419	12	0	3.9453	-1.52118e-05
2	0	0	1	0	1	155.71	0.392813	0.392332	-0.0393712	8	0.000197142	12	0	5.6933	-1.54466e-05
2	0	0	1	0	1	157.458	0.375334	0.374896	-0.0271411	8	0.000140318	12	0	7.4412	-1.01751e-05
2	0	0	1	0	1	159.206	0.357855	0.357425	-0.0485909	8	7.72006e-05	12	0	9.1891	-1.73676e-05
2	1	0	1	0	0	160.82	0.358304	0.357841	0.0371035	9	7.30255e-05	12	0	0.7991	1.32772e-05
2	1	0	1	0	0	162.568	0.375783	0.375324	0.0362073	9	0.000133329	12	0	2.547	1.35895e-05
2	1	0	1	0	0	164.316	0.393263	0.392846	0.0219234	9	0.000189842	12	0	4.295	8.61254e-06
2	1	0	1	0	0	166.064	0.410742	0.410265	0.0350881	9	0.000242634	12	0	6.0429	1.43954e-05
2	0	0	1	0	0	167.812	0.428221	0.427771	0.0316879	9	0.000292341	12	0	7.7908	1.35552e-05
2	1	0	1	0	0	169.56	0.445701	0.445212	0.0185176	9	0.000338978	12	0	9.5388	8.24426e-06
2	0	0	1	0	0	171.214	0.43776	0.43729	-0.0324103	9	0.000323971	12	0	1.1986	-1.41727e-05
2	0	0	1	0	0	172.962	0.420281	0.419831	-0.0199206	9	0.000280131	12	0	2.9465	-8.36328e-06
2	0	0	1	0	0	174.71	0.402801	0.402341	-0.0199574	9	0.000231824	12	0	4.6945	-8.02967e-06
2	0	0	1	0	0	176.458	0.385322	0.38488	-0.0391116	9	0.000178353	12	0	6.4424	-1.50533e-05
2	0	0	1	0	0	178.205	0.367843	0.367406	-0.0419516	9	0.000118874	12	0	8.1903	-1.54133e-05
2	0	0	1	0	0	179.953	0.350364	0.349909	-0.0322327	9	5.28684e-05	12	0	9.9383	-1.12785e-05
2	1	0	1	0	1	181.568	0.365795	0.365326	0.0363578	10	0.000103976	12	0	1.5482	1.32825e-05
2	1	0	1	0	1	183.316	0.383275	0.382843	0.0392532	10	0.000162717	12	0	3.2962	1.50278e-05
2	1	0	1	0	1	185.064	0.400755	0.400348	0.0379693	10	0.000217839	12	0	5.0441	1.52009e-05
2	1	0	1	0	1	186.812	0.418233	0.417748	0.0268113	10	0.000269155	12	0	6.792	1.12004e-05
2	1	0	1	0	1	188.56	0.435712	0.435247	0.0241496	10	0.000317348	12	0	8.54	1.05111e-05
2	0	0	1	0	1	190.214	0.447748	0.447344	-0.0135711	10	0.000350836	12	0	0.1998	-6.07095e-06
2	0	0	1	0	1	191.961	0.430269	0.429791	-0.0163058	10	0.000310418	12	0	1.9477	-7.00806e-06
2	0	0	1	0	1	193.709	0.41279	0.412319	-0.0189888	10	0.000264712	12	0	3.6957	-7.82942e-06
2	0	0	1	0	1	195.457	0.395309	0.394839	-0.0214893	10	0.00021423	12	0	5.4436	-8.48483e-06
2	0	0	1	0	1	197.205	0.377831	0.377402	-0.0259986	10	0.000158483	12	0	7.1915	-9.81189e-06
2	0	0	1	0	1	198.953	0.360352	0.359851	-0.0361843	10	9.64855e-05	12	0	8.9395	-1.3021e-05
2	0	0	0	0	1	199.986	0.349989	0.34961	-0.0692983	10	5.65102e-05	12	0	9.9722	-2.42274e-05