File: ACS_Catal_2026/Figures_Na_K/main_figures/data/EC/20251112_2-148_alpha_reproducibility/20251112_2-148_001_alpha_reproducibility_1_K1_03_CVA_C01.mpt
EC-Lab ASCII FILE
Nb header lines : 66

Cyclic Voltammetry Advanced

Run on channel : 1 (SN 69187)
User :
CE vs. WE compliance from -10 V to 10 V
Electrode connection : standard
Potential control : Ewe
Ewe ctrl range : min = -1.00 V, max = 1.00 V
Safety Limits :
	Do not start on E overload
Acquisition started on : 11/12/2025 13:18:25.019
Loaded Setting File :  C:\Users\User\Documents\EC-Lab\Data\Yatsuzuka\20251030_2-147_gamma_reproducibility\20251030_2-147_001_gamma1_K_1.mps
Saved on :
	File : 20251112_2-148_001_alpha_reproducibility_1_K1_03_CVA_C01.mpr
	Directory : C:\Users\User\Documents\EC-Lab\Data\Yatsuzuka\20251112_2-148_alpha_reproducibility\
	Host : 192.109.209.127
Device : SP-150e (SN .003883)
Address : 192.109.209.128
EC-LAB for windows v11.52 (software)
Internet server v11.52 (firmware)
Command interpretor v11.50 (firmware)
Electrode material :
Initial state :
Electrolyte :
Comments :
Electrode surface area : 0.001 cm2
Characteristic mass : 0.001 g
Equivalent Weight : 0.000 g/eq.
Density : 0.000 g/cm3
Volume (V) : 0.001 cm3
Cycle Definition : Charge/Discharge alternance
Ei (V)              0.450
vs.                 Ref
ti (h:m:s)          0:00:10.0000
dti (s)             0.0000
dE/dt               5.000
dE/dt unit          mV/s
E1 (V)              0.700
vs.                 Ref
t1 (h:m:s)          0:00:0.0000
dt1 (s)             0.1000
Step percent        50
N                   10
E range min (V)     -1.000
E range max (V)     1.000
I Range             10 mA
I Range min         Unset
I Range max         Unset
I Range init        Unset
Bandwidth           5
E2 (V)              0.450
vs.                 Ref
t2 (h:m:s)          0:00:0.0000
dt2 (s)             0.1000
nc cycles           14
nr                  1
Reverse Scan        0
Ef (V)              0.000
vs.                 Eoc
tf (h:m:s)          0:00:0.0000
dtf (s)             0.1000

mode	ox/red	error	control changes	Ns changes	counter inc.	time/s	control/V	Ewe/V	<I>/mA	cycle number	(Q-Qo)/C	I Range	Ns	step time/s	Pwe/W	Rwe/Ohm
2	0	0	0	0	0	232.91	0.449961	0.449678	-0.0249983	1	0.0000000E+000	11	0	0.000000000000000E+000	-1.12412e-05	17988.3
2	1	0	1	0	0	246.846	0.519639	0.519449	0.0210709	1	0.000235886	11	0	13.8807	1.09453e-05	24652.4
2	1	0	0	0	0	260.827	0.589542	0.589304	0.0659489	1	0.000708918	11	0	27.8613	3.88639e-05	8935.76
2	1	0	1	0	0	274.807	0.659445	0.659223	0.72237	1	0.00425955	11	0	41.8419	0.000476203	912.583
2	1	0	1	0	0	288.57	0.671728	0.671514	0.817643	1	0.0244185	11	0	55.6051	0.000549058	821.28
2	1	0	0	0	0	302.551	0.601825	0.601635	0.0352661	1	0.0280957	11	0	69.5857	2.12173e-05	17059.8
2	0	0	1	0	0	316.532	0.531922	0.531741	-0.0113591	1	0.0281365	11	0	5.2927	-6.04011e-06	46811.9
2	0	0	0	0	0	330.512	0.462019	0.461709	-0.0135555	1	0.0279888	11	0	19.2733	-6.25868e-06	34060.7
2	0	0	1	0	1	344.35	0.507206	0.506934	0.012828	2	0.0281143	11	0	11.3842	6.50293e-06	39517.8
2	1	0	1	0	1	358.331	0.57711	0.576858	0.0287755	2	0.0283534	11	0	25.3649	1.65994e-05	20046.9
2	1	0	1	0	1	372.311	0.647013	0.646798	0.362273	2	0.0299864	11	0	39.3455	0.000234318	1785.39
2	1	0	1	0	1	386.065	0.684211	0.684037	1.13206	2	0.0469386	11	0	53.0986	0.000774368	604.243
2	1	0	1	0	1	400.045	0.614307	0.614078	0.0554468	2	0.0523511	11	0	67.0793	3.40487e-05	11075.1
2	0	0	1	0	1	414.026	0.544404	0.544202	-0.0105921	2	0.0524722	11	0	4.4938	-5.76424e-06	51378.1
2	0	0	1	0	1	428.006	0.474502	0.474296	-0.0157581	2	0.0523295	11	0	18.4744	-7.474e-06	30098.6
2	1	0	1	0	0	441.844	0.494724	0.494543	0.0128011	3	0.052385	11	0	8.8877	6.33072e-06	38632.7
2	1	0	1	0	0	455.825	0.564627	0.564409	0.0207615	3	0.0525891	11	0	22.8683	1.1718e-05	27185.4
2	1	0	1	0	0	469.806	0.63453	0.634358	0.190403	3	0.0534941	11	0	36.8489	0.000120784	3331.66
2	1	0	1	0	0	483.559	0.696693	0.696457	1.70452	3	0.0663909	11	0	50.6021	0.00118713	408.593
2	1	0	1	0	0	497.539	0.626791	0.626607	0.0826421	3	0.0742657	11	0	64.5827	5.17841e-05	7582.19
2	1	0	1	0	0	511.52	0.556888	0.556665	-0.00327366	3	0.0745239	11	0	2.2968	-1.82233e-06	170043
2	0	0	1	0	0	525.501	0.486985	0.48679	-0.0152859	3	0.0743915	11	0	16.2774	-7.441e-06	31845.8
2	1	0	0	0	1	539.339	0.482241	0.481951	0.0161015	4	0.0743837	11	0	6.3912	7.76015e-06	29932
2	1	0	1	0	1	553.319	0.552144	0.551902	0.015133	4	0.0745729	11	0	20.3718	8.35192e-06	36470.1
2	1	0	0	0	1	567.3	0.622047	0.621784	0.100065	4	0.0751088	11	0	34.3524	6.22189e-05	6213.8
2	1	0	1	0	1	581.281	0.69195	0.691703	1.56171	4	0.0833706	11	0	48.333	0.00108024	442.913
2	1	0	1	0	1	595.034	0.639273	0.639036	0.152949	4	0.0947026	11	0	62.0862	9.77399e-05	4178.1
2	1	0	0	0	1	609.014	0.56937	0.569175	-0.00145056	4	0.0952728	11	0	0.000000000000000E+000	-8.25623e-07	392383
2	1	0	1	0	1	622.995	0.499467	0.499195	-0.0101752	4	0.0951558	11	0	13.8807	-5.0794e-06	49060.1
2	0	0	0	0	0	636.833	0.469758	0.469555	0.00803271	5	0.0950874	11	0	3.8946	3.7718e-06	58455.3
2	1	0	1	0	0	650.814	0.539662	0.539405	0.017369	5	0.0952694	11	0	17.8753	9.36895e-06	31055.6
2	1	0	1	0	0	664.794	0.609565	0.609363	0.0569874	5	0.0956337	11	0	31.8559	3.4726e-05	10693
2	1	0	1	0	0	678.775	0.679468	0.679265	1.10555	5	0.100841	11	0	45.8365	0.000750959	614.416
2	1	0	1	0	0	692.528	0.651756	0.651584	0.26772	5	0.115459	11	0	59.5896	0.000174442	2433.82
2	1	0	1	0	0	706.509	0.581852	0.581615	0.00164964	5	0.116507	11	0	0.0999	9.59458e-07	352571
2	0	0	1	0	0	720.489	0.51195	0.511724	-0.0119418	5	0.116414	11	0	11.6838	-6.11092e-06	42851.4
2	1	0	1	0	1	734.327	0.457276	0.457057	0.014131	6	0.116287	11	0	1.3981	6.45868e-06	32344.3
2	0	0	1	0	1	748.308	0.527179	0.527009	0.0115111	6	0.116464	11	0	15.3787	6.06645e-06	45782.7
2	1	0	1	0	1	762.288	0.597082	0.596892	0.040666	6	0.116735	11	0	29.3593	2.42732e-05	14677.9
2	1	0	1	0	1	776.269	0.666985	0.666752	0.690851	6	0.119799	11	0	43.3399	0.000460627	965.117
2	1	0	1	0	1	790.022	0.664239	0.664022	0.442165	6	0.135315	11	0	57.0931	0.000293607	1501.75
2	1	0	1	0	1	804.003	0.594336	0.594103	0.011035	6	0.137173	11	0	71.0737	6.5559e-06	53838.2
2	1	0	1	0	1	817.983	0.524433	0.524237	-0.00611668	6	0.13712	11	0	8.7878	-3.20659e-06	85706.2
2	0	0	1	0	1	831.964	0.45453	0.454306	-0.0165601	6	0.136964	11	0	22.7684	-7.52335e-06	27433.8
2	1	0	0	0	0	845.802	0.514696	0.514424	0.016247	7	0.137114	11	0	12.8822	8.35783e-06	31662.8
2	0	0	1	0	0	859.783	0.584599	0.584405	0.021628	7	0.137334	11	0	26.8628	1.26395e-05	27020.7
2	1	0	0	0	0	873.763	0.654502	0.654232	0.382206	7	0.139022	11	0	40.8434	0.000250052	1711.72
2	1	0	1	0	0	887.516	0.676722	0.67653	0.65328	7	0.15314	11	0	54.5965	0.000441964	1035.59
2	1	0	1	0	0	901.497	0.606818	0.606647	0.0249714	7	0.156126	11	0	68.5772	1.51489e-05	24293.7
2	1	0	0	0	0	915.478	0.536915	0.536684	-0.00886028	7	0.156137	11	0	6.5909	-4.75517e-06	60571.9
2	0	0	1	0	0	929.458	0.467012	0.466787	-0.0102705	7	0.155988	11	0	20.5715	-4.79415e-06	45449.2
2	1	0	0	0	1	943.296	0.502213	0.501969	0.0152319	8	0.156074	11	0	10.3856	7.64596e-06	32955
2	1	0	1	0	1	957.277	0.572116	0.57192	0.0211004	8	0.15627	11	0	24.3662	1.20677e-05	27104.6
2	1	0	1	0	1	971.258	0.64202	0.641813	0.220338	8	0.157282	11	0	38.3469	0.000141416	2912.86
2	1	0	0	0	1	985.011	0.689204	0.688991	1.09657	8	0.170202	11	0	52.1	0.000755525	628.316
2	1	0	1	0	1	998.991	0.619301	0.619105	0.048097	8	0.175223	11	0	66.0806	2.97771e-05	12872
2	0	0	1	0	1	1012.97	0.549397	0.549151	-0.00875514	8	0.175333	11	0	4.7934	-4.80789e-06	62723.2
2	0	0	1	0	1	1026.95	0.479494	0.479296	-0.0109481	8	0.175195	11	0	18.774	-5.24741e-06	43778.8
2	0	0	1	0	0	1040.79	0.489731	0.489522	0.0105132	9	0.175221	11	0	7.8891	5.14642e-06	46562.8
2	0	0	1	0	0	1054.77	0.559634	0.559423	0.0117455	9	0.175405	11	0	21.8697	6.57068e-06	47628.8
2	1	0	1	0	0	1068.75	0.629537	0.629334	0.122897	9	0.176008	11	0	35.8503	7.73431e-05	5120.84
2	1	0	1	0	0	1082.73	0.699439	0.699226	1.80623	9	0.185964	11	0	49.8309	0.00126296	387.119
2	1	0	1	0	0	1096.49	0.631783	0.631545	0.0993385	9	0.194473	11	0	63.5841	6.27367e-05	6357.51
2	1	0	1	0	0	1110.47	0.561881	0.561661	-0.00238434	9	0.194778	11	0	2.0971	-1.33919e-06	235562
2	1	0	1	0	0	1124.45	0.491978	0.491748	-0.00871142	9	0.194652	11	0	16.0777	-4.28382e-06	56448.7
2	1	0	1	0	1	1138.28	0.477248	0.477056	0.0131832	10	0.194619	11	0	5.3925	6.28913e-06	36186.6
2	1	0	0	0	1	1152.27	0.547151	0.546932	0.0159389	10	0.194795	11	0	19.3732	8.71749e-06	34314.3
2	1	0	1	0	1	1166.25	0.617054	0.616853	0.0689872	10	0.195195	11	0	33.3538	4.25549e-05	8941.55
2	1	0	0	0	1	1180.23	0.686957	0.686771	1.30228	10	0.201472	11	0	47.3344	0.000894367	527.362
2	1	0	1	0	1	1193.98	0.644267	0.644083	0.171379	10	0.213405	11	0	61.0875	0.000110383	3758.23
2	0	0	1	0	1	1207.96	0.574363	0.574162	-0.00339445	10	0.214037	11	0	0.000000000000000E+000	-1.94897e-06	169147
2	0	0	0	0	1	1221.94	0.50446	0.504202	-0.00776185	10	0.213928	11	0	13.0819	-3.91354e-06	64959.1
2	0	0	1	0	0	1235.78	0.464765	0.464533	0.00890328	11	0.213838	11	0	2.896	4.13586e-06	52175.5
2	1	0	0	0	0	1249.76	0.534668	0.534488	0.012063	11	0.214011	11	0	16.8766	6.44755e-06	44307.9
2	1	0	1	0	0	1263.74	0.604572	0.604342	0.0446914	11	0.214298	11	0	30.8573	2.70089e-05	13522.5
2	1	0	1	0	0	1277.72	0.674475	0.674237	0.805807	11	0.217993	11	0	44.8379	0.000543304	836.723
2	1	0	0	0	0	1291.47	0.656749	0.656509	0.292626	11	0.231146	11	0	58.591	0.000192112	2243.51
2	0	0	1	0	0	1305.45	0.586846	0.586656	0.000679221	11	0.232295	11	0	72.5716	3.98469e-07	863719
2	1	0	1	0	0	1319.44	0.516942	0.516734	-0.00714003	11	0.232212	11	0	11.0847	-3.68949e-06	72371.4
2	1	0	1	0	1	1333.27	0.452283	0.452052	0.0143137	12	0.232066	11	0	0.3995	6.47054e-06	31581.8
2	0	0	1	0	1	1347.25	0.522186	0.522001	0.00987651	12	0.232237	11	0	14.3801	5.15554e-06	52852.8
2	1	0	1	0	1	1361.23	0.592089	0.591846	0.027654	12	0.232465	11	0	28.3607	1.63669e-05	21401.8
2	1	0	1	0	1	1375.22	0.661992	0.661734	0.473171	12	0.234569	11	0	42.3413	0.000313113	1398.51
2	1	0	1	0	1	1388.97	0.669231	0.669039	0.454443	12	0.247834	11	0	56.0945	0.00030404	1472.22
2	1	0	1	0	1	1402.95	0.599329	0.599112	0.0099474	12	0.249774	11	0	70.0751	5.95961e-06	60228
2	0	0	1	0	1	1416.93	0.529426	0.529203	-0.00917693	12	0.249729	11	0	9.5867	-4.85645e-06	57666.7
2	0	0	1	0	1	1430.91	0.459523	0.459259	-0.0153901	12	0.249579	11	0	23.5673	-7.06804e-06	29841.2
2	1	0	1	0	0	1444.75	0.509702	0.509526	0.0140259	13	0.249699	11	0	11.8835	7.14658e-06	36327.4
2	1	0	0	0	0	1458.73	0.579606	0.579323	0.0212687	13	0.249897	11	0	25.8642	1.23214e-05	27238.3
2	1	0	1	0	0	1472.71	0.649509	0.649325	0.268639	13	0.251106	11	0	39.8448	0.000174434	2417.1
2	1	0	1	0	0	1486.46	0.681715	0.681523	0.776448	13	0.263783	11	0	53.5979	0.000529167	877.744
2	1	0	1	0	0	1500.44	0.611812	0.611643	0.0320524	13	0.267275	11	0	67.5785	1.96046e-05	19082.6
2	0	0	1	0	0	1514.42	0.541908	0.541701	-0.00767283	13	0.267303	11	0	6.8905	-4.15638e-06	70599.9
2	0	0	0	0	0	1528.4	0.472005	0.471792	-0.0145178	13	0.267162	11	0	20.8711	-6.84941e-06	32497.4
2	1	0	1	0	1	1542.24	0.49722	0.496999	0.014982	14	0.267221	11	0	9.387	7.44606e-06	33173
2	1	0	0	0	1	1556.22	0.567123	0.566894	0.018408	14	0.267401	11	0	23.3676	1.04354e-05	30796
2	1	0	1	0	1	1570.2	0.637026	0.636814	0.152628	14	0.268115	11	0	37.3482	9.71954e-05	4172.34
2	1	0	1	0	1	1583.96	0.694197	0.693957	1.23296	14	0.27851	11	0	51.1014	0.00085562	562.839
2	1	0	0	0	1	1597.94	0.624294	0.624077	0.052022	14	0.284029	11	0	65.082	3.24657e-05	11996.4
2	0	0	1	0	1	1611.92	0.554391	0.554193	-0.0079356	14	0.284165	11	0	3.9944	-4.39786e-06	69836.3
2	1	0	1	0	1	1625.9	0.484487	0.484297	-0.00766534	14	0.284033	11	0	17.9751	-3.7123e-06	63180.1
2	0	0	1	0	0	1639.74	0.484738	0.484528	0.00857296	15	0.284034	11	0	6.8905	4.15384e-06	56518.1
2	0	0	1	0	0	1653.72	0.554641	0.55442	0.011273	15	0.284207	11	0	20.8711	6.24999e-06	49181.1
2	1	0	1	0	0	1667.7	0.624544	0.624344	0.0841053	15	0.284663	11	0	34.8517	5.25107e-05	7423.36
2	1	0	1	0	0	1681.68	0.694447	0.694262	1.37018	15	0.291884	11	0	48.8323	0.000951264	506.694
2	1	0	1	0	0	1695.43	0.636777	0.636573	0.0995712	15	0.300335	11	0	62.5855	6.33843e-05	6393.14
2	1	0	1	0	0	1709.41	0.566874	0.566687	-0.00352569	15	0.300671	11	0	2.197	-1.99796e-06	160731
2	0	0	1	0	0	1723.39	0.496971	0.496744	-0.0120326	15	0.300551	11	0	16.1776	-5.97712e-06	41283.2
2	0	0	1	0	0	1732.78	0.450011	0.449754	-0.0338855	15	0.300444	11	0	25.5667	-1.52401e-05	13272.8