File: ACS_Catal_2026/Figures_Na_K/main_figures/data/EC/20251112_2-148_alpha_reproducibility/20251112_2-148_002_alpha_reproducibility_2_K1_03_CVA_C02.mpt
EC-Lab ASCII FILE
Nb header lines : 66

Cyclic Voltammetry Advanced

Run on channel : 2 (SN 69290)
User :
CE vs. WE compliance from -10 V to 10 V
Electrode connection : standard
Potential control : Ewe
Ewe ctrl range : min = -1.00 V, max = 1.00 V
Safety Limits :
	Do not start on E overload
Acquisition started on : 11/12/2025 13:25:42.107
Loaded Setting File :  C:\Users\User\Documents\EC-Lab\Data\Yatsuzuka\20251112_2-148_alpha_reproducibility\20251112_2-148_002_alpha_reproducibility_2_K1.mps
Saved on :
	File : 20251112_2-148_002_alpha_reproducibility_2_K1_03_CVA_C02.mpr
	Directory : C:\Users\User\Documents\EC-Lab\Data\Yatsuzuka\20251112_2-148_alpha_reproducibility\
	Host : 192.109.209.127
Device : SP-150e (SN .003883)
Address : 192.109.209.128
EC-LAB for windows v11.52 (software)
Internet server v11.52 (firmware)
Command interpretor v11.50 (firmware)
Electrode material :
Initial state :
Electrolyte :
Comments :
Electrode surface area : 0.001 cm2
Characteristic mass : 0.001 g
Equivalent Weight : 0.000 g/eq.
Density : 0.000 g/cm3
Volume (V) : 0.001 cm3
Cycle Definition : Charge/Discharge alternance
Ei (V)              0.450
vs.                 Ref
ti (h:m:s)          0:00:10.0000
dti (s)             0.0000
dE/dt               5.000
dE/dt unit          mV/s
E1 (V)              0.700
vs.                 Ref
t1 (h:m:s)          0:00:0.0000
dt1 (s)             0.1000
Step percent        50
N                   10
E range min (V)     -1.000
E range max (V)     1.000
I Range             10 mA
I Range min         Unset
I Range max         Unset
I Range init        Unset
Bandwidth           5
E2 (V)              0.450
vs.                 Ref
t2 (h:m:s)          0:00:0.0000
dt2 (s)             0.1000
nc cycles           14
nr                  1
Reverse Scan        0
Ef (V)              0.000
vs.                 Eoc
tf (h:m:s)          0:00:0.0000
dtf (s)             0.1000

mode	ox/red	error	control changes	Ns changes	counter inc.	time/s	control/V	Ewe/V	<I>/mA	cycle number	(Q-Qo)/C	I Range	Ns	step time/s	Pwe/W	Rwe/Ohm
2	1	0	0	0	0	231.719	0.450021	0.449592	0.0144042	1	0.0000000E+000	11	0	0.000000000000000E+000	6.47602e-06	31212.5
2	1	0	1	0	0	245.558	0.519213	0.51878	0.0195178	1	0.000258371	11	0	13.7837	1.01255e-05	26579.8
2	1	0	0	0	0	259.442	0.588631	0.588176	0.0631857	1	0.000769669	11	0	27.6672	3.71643e-05	9308.7
2	1	0	0	0	0	273.325	0.658049	0.657599	0.609866	1	0.00399646	11	0	41.5508	0.000401047	1078.27
2	1	0	1	0	0	286.959	0.673781	0.673321	0.868365	1	0.0211653	11	0	55.1849	0.000584688	775.39
2	1	0	1	0	0	300.843	0.604362	0.603882	0.0428364	1	0.0252605	11	0	69.0685	2.58681e-05	14097.4
2	0	0	0	0	0	314.726	0.534945	0.534484	-0.00954661	1	0.0253408	11	0	5.2937	-5.10251e-06	55986.7
2	0	0	0	0	0	328.61	0.465527	0.465072	-0.0143362	1	0.0251985	11	0	19.1773	-6.66739e-06	32440.3
2	1	0	0	0	1	342.263	0.502783	0.502331	0.0175175	2	0.0253171	11	0	10.5426	8.79956e-06	28676
2	1	0	1	0	1	356.146	0.5722	0.571718	0.0266897	2	0.0255631	11	0	24.4261	1.5259e-05	21421
2	1	0	1	0	1	370.03	0.641619	0.641172	0.276024	2	0.0268758	11	0	38.3097	0.000176979	2322.89
2	1	0	1	0	1	383.654	0.69026	0.689756	1.32942	2	0.0402778	11	0	51.9339	0.000916975	518.84
2	1	0	0	0	1	397.538	0.620843	0.620397	0.0819659	2	0.0472591	11	0	65.8174	5.08514e-05	7568.97
2	0	0	1	0	1	411.421	0.551426	0.550925	-0.00702569	2	0.0475181	11	0	3.2961	-3.87063e-06	78415.8
2	1	0	1	0	1	425.305	0.482007	0.481548	-0.00880583	2	0.047385	11	0	17.1797	-4.24043e-06	54685.2
2	0	0	1	0	0	438.958	0.486303	0.485833	0.0116837	3	0.0474087	11	0	7.2465	5.67634e-06	41581.9
2	1	0	1	0	0	452.841	0.55572	0.555273	0.0207041	3	0.0476224	11	0	21.13	1.14964e-05	26819.5
2	1	0	1	0	0	466.725	0.625138	0.624673	0.131086	3	0.0482934	11	0	35.0136	8.18861e-05	4765.35
2	1	0	1	0	0	480.608	0.694555	0.694099	1.55771	3	0.0571595	11	0	48.8971	0.0010812	445.591
2	1	0	1	0	0	494.233	0.637323	0.6369	0.176916	3	0.0681674	11	0	62.5213	0.000112678	3600.01
2	0	0	1	0	0	508.116	0.567906	0.567456	-0.00179932	3	0.0688241	11	0	0.2996	-1.02104e-06	315372
2	0	0	1	0	0	522	0.498488	0.497963	-0.0137388	3	0.0687128	11	0	13.6838	-6.84142e-06	36245
2	1	0	1	0	1	535.653	0.469822	0.469313	0.0157717	4	0.0686505	11	0	3.8954	7.40186e-06	29756.6
2	1	0	1	0	1	549.536	0.539239	0.53876	0.0146632	4	0.0688524	11	0	17.7789	7.89992e-06	36742.4
2	1	0	1	0	1	563.42	0.608658	0.608203	0.0634925	4	0.0692484	11	0	31.6625	3.86163e-05	9579.14
2	1	0	0	0	1	577.303	0.678075	0.677584	0.960143	4	0.0741112	11	0	45.546	0.000650578	705.712
2	1	0	1	0	1	590.928	0.653804	0.65334	0.307456	4	0.0875536	11	0	59.1702	0.000200873	2124.99
2	1	0	1	0	1	604.811	0.584386	0.583941	0.00522535	4	0.0889203	11	0	73.0538	3.0513e-06	111752
2	0	0	1	0	1	618.695	0.514968	0.514471	-0.0116861	4	0.0888478	11	0	10.7872	-6.01214e-06	44024.3
2	1	0	1	0	0	632.348	0.453341	0.452894	0.0121701	5	0.0887058	11	0	0.5993	5.51175e-06	37213.8
2	1	0	0	0	0	646.231	0.522759	0.522276	0.0142541	5	0.0889016	11	0	14.4828	7.44458e-06	36640.3
2	1	0	0	0	0	660.115	0.592177	0.591709	0.036157	5	0.0891784	11	0	28.3664	2.13944e-05	16365
2	1	0	1	0	0	673.998	0.661594	0.661162	0.524206	5	0.091663	11	0	42.2499	0.000346585	1261.26
2	1	0	1	0	0	687.622	0.670284	0.66978	0.625836	5	0.105881	11	0	55.8741	0.000419173	1070.22
2	1	0	1	0	0	701.506	0.600866	0.600396	0.0221602	5	0.108741	11	0	69.7577	1.33049e-05	27093.4
2	0	0	0	0	0	715.39	0.531449	0.530958	-0.00974411	5	0.108743	11	0	7.4911	-5.17371e-06	54490.1
2	0	0	1	0	0	729.273	0.462032	0.461581	-0.0142763	5	0.108591	11	0	21.3746	-6.58966e-06	32332
2	1	0	0	0	1	742.926	0.506279	0.505843	0.0151933	6	0.108715	11	0	11.1868	7.6854e-06	33293.9
2	1	0	1	0	1	756.81	0.575696	0.575236	0.020914	6	0.10894	11	0	25.0703	1.20305e-05	27504.8
2	1	0	1	0	1	770.693	0.645114	0.644646	0.270992	6	0.110205	11	0	38.9538	0.000174694	2378.84
2	1	0	0	0	1	784.317	0.686765	0.686293	1.00541	6	0.122561	11	0	52.578	0.000690008	682.598
2	1	0	0	0	1	798.201	0.617347	0.616954	0.057915	6	0.127608	11	0	66.4616	3.57309e-05	10652.7
2	1	0	1	0	1	812.084	0.547929	0.547486	-0.00459377	6	0.12776	11	0	4.4947	-2.51502e-06	119180
2	0	0	1	0	1	825.968	0.478511	0.478043	-0.0133867	6	0.127622	11	0	18.3783	-6.39942e-06	35710.3
2	1	0	1	0	0	839.621	0.489799	0.489361	0.0162963	7	0.12766	11	0	7.8907	7.97477e-06	30029
2	1	0	1	0	0	853.505	0.559216	0.558746	0.0193996	7	0.127864	11	0	21.7742	1.08394e-05	28802
2	1	0	1	0	0	867.388	0.628633	0.628163	0.132488	7	0.128537	11	0	35.6577	8.32238e-05	4741.3
2	1	0	1	0	0	881.272	0.698051	0.697588	1.52215	7	0.137474	11	0	49.5413	0.00106184	458.29
2	1	0	1	0	0	894.896	0.633827	0.633387	0.128869	7	0.14634	11	0	63.1655	8.16237e-05	4914.99
2	1	0	1	0	0	908.779	0.56441	0.563914	-0.00211107	7	0.146792	11	0	1.2984	-1.19046e-06	267122
2	1	0	1	0	0	922.663	0.494992	0.494528	-0.0102827	7	0.146675	11	0	15.182	-5.08507e-06	48093.4
2	1	0	1	0	1	936.316	0.473318	0.472791	0.0156366	8	0.14663	11	0	4.5946	7.39285e-06	30236.2
2	1	0	1	0	1	950.199	0.542735	0.542251	0.0173633	8	0.146825	11	0	18.4781	9.41528e-06	31229.7
2	1	0	1	0	1	964.083	0.612154	0.611702	0.0692856	8	0.147225	11	0	32.3617	4.23821e-05	8828.71
2	1	0	0	0	1	977.967	0.681571	0.681151	0.983361	8	0.152329	11	0	46.2452	0.000669817	692.676
2	1	0	1	0	1	991.591	0.650308	0.649828	0.270201	8	0.16466	11	0	59.8694	0.000175584	2404.98
2	1	0	1	0	1	1005.47	0.58089	0.580419	0.00198764	8	0.165761	11	0	73.7529	1.15366e-06	292014
2	0	0	1	0	1	1019.36	0.511472	0.510998	-0.00982398	8	0.165674	11	0	11.5863	-5.02003e-06	52015.3
2	0	0	1	0	0	1033.01	0.456838	0.456336	0.010283	9	0.16555	11	0	1.3535	4.69252e-06	44377.5
2	1	0	0	0	0	1046.89	0.526255	0.525787	0.0161879	9	0.165741	11	0	15.237	8.51138e-06	32480.2
2	1	0	0	0	0	1060.78	0.595673	0.59517	0.0381974	9	0.166019	11	0	29.1206	2.2734e-05	15581.4
2	1	0	1	0	0	1074.66	0.665091	0.664577	0.560439	9	0.168678	11	0	43.0041	0.000372455	1185.82
2	1	0	1	0	0	1088.29	0.666788	0.666317	0.499527	9	0.181952	11	0	56.6283	0.000332844	1333.9
2	1	0	0	0	0	1102.17	0.597371	0.596864	0.0190415	9	0.184224	11	0	70.5118	1.13652e-05	31345.5
2	0	0	0	0	0	1116.05	0.527953	0.527458	-0.0110826	9	0.184197	11	0	8.7896	-5.8456e-06	47593.4
2	1	0	1	0	0	1129.94	0.458535	0.458041	-0.0100408	9	0.184046	11	0	22.6731	-4.59912e-06	45617.7
2	1	0	1	0	1	1143.59	0.509774	0.509266	0.0142358	10	0.184185	11	0	11.9409	7.24978e-06	35773.7
2	1	0	1	0	1	1157.47	0.579193	0.57873	0.021533	10	0.184409	11	0	25.8245	1.24618e-05	26876.4
2	1	0	1	0	1	1171.36	0.64861	0.64819	0.292443	10	0.185774	11	0	39.708	0.000189559	2216.46
2	1	0	0	0	1	1184.98	0.683269	0.682825	0.914673	10	0.198306	11	0	53.3322	0.000624562	746.524
2	1	0	1	0	1	1198.86	0.613852	0.613374	0.0436531	10	0.20282	11	0	67.2157	2.67757e-05	14051.1
2	0	0	1	0	1	1212.75	0.544433	0.543987	-0.00848378	10	0.202917	11	0	5.4935	-4.61506e-06	64120.8
2	0	0	1	0	1	1226.63	0.475016	0.474584	-0.0128618	10	0.202778	11	0	19.377	-6.10399e-06	36898.8
2	1	0	1	0	0	1240.28	0.493294	0.492802	0.0149646	11	0.202833	11	0	8.5898	7.37456e-06	32931.2
2	1	0	1	0	0	1254.17	0.562712	0.562253	0.0203773	11	0.203034	11	0	22.4734	1.14572e-05	27592.1
2	1	0	1	0	0	1268.05	0.632129	0.63166	0.148663	11	0.203756	11	0	36.3569	9.39044e-05	4248.94
2	1	0	1	0	0	1281.68	0.699749	0.699302	1.50906	11	0.21291	11	0	49.9811	0.00105529	463.403
2	1	0	1	0	0	1295.56	0.630332	0.629895	0.10384	11	0.220691	11	0	63.8646	6.54081e-05	6066.04
2	1	0	1	0	0	1309.44	0.560914	0.560512	-0.00182034	11	0.221036	11	0	2.4971	-1.02032e-06	307915
2	1	0	1	0	0	1323.33	0.491497	0.49103	-0.00936708	11	0.220915	11	0	16.3806	-4.59952e-06	52420.8
2	1	0	1	0	1	1336.98	0.476813	0.476356	0.0157741	12	0.22089	11	0	5.2937	7.51408e-06	30198.6
2	1	0	1	0	1	1350.86	0.546232	0.545747	0.0154997	12	0.221085	11	0	19.1773	8.45894e-06	35210.1
2	1	0	0	0	1	1364.75	0.615649	0.615194	0.0730197	12	0.221511	11	0	33.0608	4.49212e-05	8425.04
2	1	0	0	0	1	1378.63	0.685067	0.684623	1.14756	12	0.227332	11	0	46.9444	0.000785645	596.591
2	1	0	1	0	1	1392.25	0.646813	0.646396	0.250245	12	0.240315	11	0	60.5685	0.000161758	2583.05
2	1	0	1	0	1	1406.14	0.577394	0.576934	0.00224869	12	0.241268	11	0	0.1998	1.29734e-06	256565
2	0	0	0	0	1	1420.02	0.507977	0.507526	-0.0122437	12	0.241174	11	0	12.6849	-6.21399e-06	41452
2	0	0	1	0	0	1433.67	0.460334	0.459884	0.0113755	13	0.241069	11	0	1.9977	5.23143e-06	40427.5
2	1	0	0	0	0	1447.56	0.529751	0.529295	0.0161833	13	0.241259	11	0	15.8812	8.56571e-06	32706.3
2	1	0	1	0	0	1461.44	0.599168	0.598734	0.0420177	13	0.241548	11	0	29.7647	2.51575e-05	14249.6
2	1	0	1	0	0	1475.32	0.668587	0.668133	0.651445	13	0.24461	11	0	43.6483	0.000435252	1025.62
2	1	0	1	0	0	1488.95	0.663292	0.662822	0.507996	13	0.259271	11	0	57.2725	0.000336711	1304.78
2	1	0	0	0	0	1502.83	0.593875	0.593381	0.0121303	13	0.261406	11	0	71.156	7.19792e-06	48917.1
2	0	0	1	0	0	1516.72	0.524458	0.524005	-0.00988929	13	0.261364	11	0	9.1891	-5.18203e-06	52987.1
2	0	0	1	0	0	1530.6	0.455039	0.454553	-0.0128698	13	0.261215	11	0	23.0727	-5.85e-06	35319.3
2	1	0	1	0	1	1544.25	0.51327	0.512795	0.0130835	14	0.261374	11	0	12.6401	6.70917e-06	39194
2	1	0	1	0	1	1558.14	0.582688	0.582254	0.0247711	14	0.261603	11	0	26.5236	1.44231e-05	23505.3
2	1	0	1	0	1	1572.02	0.652106	0.651678	0.344149	14	0.263161	11	0	40.4072	0.000224275	1893.59
2	1	0	0	0	1	1585.64	0.679773	0.679315	0.923976	14	0.277281	11	0	54.0314	0.000627671	735.208
2	1	0	1	0	1	1599.53	0.610355	0.609882	0.0360712	14	0.28164	11	0	67.9149	2.19992e-05	16907.7
2	1	0	1	0	1	1613.41	0.540937	0.540472	-0.00565689	14	0.281703	11	0	5.8931	-3.05739e-06	95542.2
2	1	0	1	0	1	1627.29	0.47152	0.471063	-0.0111169	14	0.281565	11	0	19.7766	-5.23675e-06	42373.6
2	1	0	1	0	0	1640.95	0.49679	0.496334	0.0158758	15	0.281639	11	0	9.289	7.87971e-06	31263.5
2	1	0	1	0	0	1654.83	0.566207	0.565771	0.0199885	15	0.281842	11	0	23.1725	1.13089e-05	28304.9
2	1	0	1	0	0	1668.71	0.635626	0.635188	0.169963	15	0.282648	11	0	37.0561	0.000107958	3737.22
2	1	0	1	0	0	1682.34	0.696253	0.695806	1.54578	15	0.293505	11	0	50.6803	0.00107556	450.133
2	1	0	1	0	0	1696.22	0.626836	0.626369	0.0953301	15	0.301681	11	0	64.5638	5.97119e-05	6570.53
2	1	0	1	0	0	1710.11	0.557418	0.556935	-0.00329356	15	0.301969	11	0	2.8966	-1.8343e-06	169098
2	0	0	1	0	0	1723.99	0.488	0.487473	-0.00972777	15	0.301846	11	0	16.7801	-4.74203e-06	50111.5
2	0	0	1	0	0	1731.58	0.450021	0.449496	-0.0103062	15	0.301757	11	0	24.3752	-4.6326e-06	43614.2