File: ACS_Catal_2026/Figures_Na_K/main_figures/data/EC/20251112_2-148_alpha_reproducibility/20251112_2-148_006_gamma_reproducibility_2_Na1_03_CVA_C02.mpt
EC-Lab ASCII FILE
Nb header lines : 66

Cyclic Voltammetry Advanced

Run on channel : 2 (SN 69290)
User :
CE vs. WE compliance from -10 V to 10 V
Electrode connection : standard
Potential control : Ewe
Ewe ctrl range : min = -1.00 V, max = 1.00 V
Safety Limits :
	Do not start on E overload
Acquisition started on : 11/12/2025 19:49:32.045
Loaded Setting File :  C:\Users\User\Documents\EC-Lab\Data\Yatsuzuka\20251112_2-148_alpha_reproducibility\20251112_2-148_002_alpha_reproducibility_2_K1.mps
Saved on :
	File : 20251112_2-148_006_gamma_reproducibility_2_Na1_03_CVA_C02.mpr
	Directory : C:\Users\User\Documents\EC-Lab\Data\Yatsuzuka\20251112_2-148_alpha_reproducibility\
	Host : 192.109.209.127
Device : SP-150e (SN .003883)
Address : 192.109.209.128
EC-Lab for windows v11.52 (software)
Internet server v11.52 (firmware)
Command interpretor v11.50 (firmware)
Electrode material :
Initial state :
Electrolyte :
Comments :
Electrode surface area : 0.001 cm2
Characteristic mass : 0.001 g
Equivalent Weight : 0.000 g/eq.
Density : 0.000 g/cm3
Volume (V) : 0.001 cm3
Cycle Definition : Charge/Discharge alternance
Ei (V)              0.450
vs.                 Ref
ti (h:m:s)          0:00:10.0000
dti (s)             0.0000
dE/dt               5.000
dE/dt unit          mV/s
E1 (V)              0.700
vs.                 Ref
t1 (h:m:s)          0:00:0.0000
dt1 (s)             0.1000
Step percent        50
N                   10
E range min (V)     -1.000
E range max (V)     1.000
I Range             10 mA
I Range min         Unset
I Range max         Unset
I Range init        Unset
Bandwidth           5
E2 (V)              0.450
vs.                 Ref
t2 (h:m:s)          0:00:0.0000
dt2 (s)             0.1000
nc cycles           14
nr                  1
Reverse Scan        0
Ef (V)              0.000
vs.                 Eoc
tf (h:m:s)          0:00:0.0000
dtf (s)             0.1000

mode	ox/red	error	control changes	Ns changes	counter inc.	time/s	control/V	Ewe/V	<I>/mA	cycle number	(Q-Qo)/C	I Range	Ns	step time/s	P/W
2	1	0	1	0	0	232.209	0.450021	0.449649	0.00181615	1	0.0000000E+000	11	0	0.000000000000000E+000	8.16631e-07
2	1	0	0	0	0	245.249	0.515218	0.514792	0.0032411	1	4.27172e-05	11	0	12.9846	1.66849e-06
2	1	0	1	0	0	258.333	0.58064	0.580186	0.00401325	1	8.99603e-05	11	0	26.0691	2.32843e-06
2	1	0	1	0	0	271.418	0.646063	0.645636	0.014054	1	0.000182299	11	0	39.1536	9.07375e-06
2	1	0	1	0	0	284.253	0.689761	0.689282	0.0797442	1	0.000923506	11	0	51.9887	5.49662e-05
2	1	0	1	0	0	297.338	0.624339	0.62391	0.00381284	1	0.0012558	11	0	65.0732	2.37887e-06
2	1	0	1	0	0	310.422	0.558916	0.558494	0.000634457	1	0.00127498	11	0	78.1577	3.5434e-07
2	0	0	0	0	0	323.507	0.493494	0.493026	0.000213136	1	0.00127836	11	0	0.000000000000000E+000	1.05082e-07
2	0	0	1	0	1	336.361	0.470821	0.470383	0.00284161	2	0.00128962	11	0	4.1602	1.33665e-06
2	1	0	1	0	1	349.445	0.536243	0.535805	0.00279635	2	0.00132731	11	0	17.2446	1.4983e-06
2	1	0	1	0	1	362.529	0.601665	0.601226	0.0038848	2	0.00136968	11	0	30.3291	2.33564e-06
2	1	0	0	0	1	375.614	0.667088	0.666647	0.0275779	2	0.00150535	11	0	43.4136	1.83847e-05
2	1	0	0	0	1	388.439	0.668786	0.668353	0.0277758	2	0.00228426	11	0	56.2388	1.85641e-05
2	1	0	1	0	1	401.524	0.603363	0.602877	0.00154678	2	0.00239298	11	0	69.3233	9.32518e-07
2	1	0	1	0	1	414.608	0.537942	0.537506	0.000350806	2	0.00240145	11	0	82.4077	1.8856e-07
2	0	0	1	0	1	427.693	0.472519	0.472073	8.53215e-05	2	0.00240256	11	0	0.2996	4.0278e-08
2	1	0	0	0	0	440.547	0.491796	0.491326	0.00272403	3	0.00242532	11	0	8.3452	1.33839e-06
2	1	0	1	0	0	453.631	0.557219	0.556779	0.00287555	3	0.00246273	11	0	21.4297	1.60105e-06
2	1	0	1	0	0	466.716	0.622641	0.622195	0.00546538	3	0.00251099	11	0	34.5142	3.40053e-06
2	1	0	1	0	0	479.8	0.688064	0.687636	0.0646341	3	0.00279882	11	0	47.5987	4.44448e-05
2	1	0	1	0	0	492.625	0.647811	0.647366	0.00901946	3	0.00341985	11	0	60.4238	5.83889e-06
2	1	0	1	0	0	505.71	0.582388	0.581951	0.00091668	3	0.00345836	11	0	73.5083	5.33462e-07
2	0	0	0	0	0	518.794	0.516966	0.516515	0.000234917	3	0.00346301	11	0	0.000000000000000E+000	1.21338e-07
2	1	0	1	0	0	531.879	0.451543	0.451118	-7.81561e-05	3	0.00346282	11	0	0.000000000000000E+000	-3.52576e-08
2	1	0	1	0	1	544.733	0.512771	0.512298	0.0026837	4	0.00349721	11	0	12.5402	1.37486e-06
2	1	0	1	0	1	557.817	0.578193	0.577736	0.00306165	4	0.00353456	11	0	25.6247	1.76882e-06
2	1	0	0	0	1	570.902	0.643616	0.643156	0.00955081	4	0.00359873	11	0	38.7092	6.14266e-06
2	1	0	1	0	1	583.727	0.692258	0.691797	0.0721748	4	0.00416455	11	0	51.5343	4.99303e-05
2	1	0	0	0	1	596.811	0.626836	0.626365	0.00352174	4	0.00446315	11	0	64.6188	2.2059e-06
2	1	0	1	0	1	609.896	0.561413	0.560896	0.000529691	4	0.00447963	11	0	77.7033	2.97101e-07
2	1	0	1	0	1	622.98	0.495991	0.495588	0.000157875	4	0.00448187	11	0	0.3995	7.82409e-08
2	0	0	1	0	0	635.834	0.468323	0.46789	0.00264533	5	0.00449098	11	0	3.6507	1.23773e-06
2	1	0	0	0	0	648.919	0.533746	0.533324	0.00270909	5	0.00452709	11	0	16.7352	1.44482e-06
2	0	0	1	0	0	662.003	0.599168	0.598746	0.00347207	5	0.00456646	11	0	29.8197	2.07889e-06
2	1	0	1	0	0	675.088	0.664591	0.66415	0.0213052	5	0.0046758	11	0	42.9042	1.41498e-05
2	1	0	1	0	0	687.913	0.671284	0.670855	0.0271466	5	0.00535478	11	0	55.7293	1.82114e-05
2	1	0	1	0	0	700.997	0.605861	0.605416	0.00155278	5	0.00546114	11	0	68.8138	9.40075e-07
2	1	0	1	0	0	714.082	0.540439	0.539965	0.000380862	5	0.00546997	11	0	81.8983	2.05652e-07
2	1	0	0	0	0	727.166	0.475016	0.474604	6.77351e-05	5	0.00547151	11	0	0.000000000000000E+000	3.21473e-08
2	1	0	1	0	1	740.02	0.489299	0.488856	0.002684	6	0.00549232	11	0	7.8458	1.31209e-06
2	1	0	1	0	1	753.105	0.554722	0.55425	0.00272708	6	0.00552892	11	0	20.9303	1.51149e-06
2	1	0	0	0	1	766.189	0.620144	0.619719	0.00470114	6	0.00557352	11	0	34.0148	2.91339e-06
2	1	0	1	0	1	779.274	0.685567	0.685183	0.0521308	6	0.00580685	11	0	47.0993	3.57191e-05
2	1	0	0	0	1	792.099	0.650308	0.649861	0.00923499	6	0.00639007	11	0	59.9244	6.00145e-06
2	1	0	1	0	1	805.183	0.584885	0.584433	0.000874458	6	0.00642885	11	0	73.0089	5.11062e-07
2	1	0	1	0	1	818.268	0.519463	0.519035	0.000273107	6	0.00643349	11	0	86.0934	1.41752e-07
2	0	0	1	0	1	831.352	0.45404	0.453648	-2.16683e-05	6	0.00643359	11	0	0.3996	-9.82978e-09
2	1	0	0	0	0	844.206	0.510274	0.509819	0.00263514	7	0.00646626	11	0	12.0798	1.34344e-06
2	1	0	1	0	0	857.291	0.575696	0.575216	0.0028561	7	0.00650285	11	0	25.1643	1.64288e-06
2	1	0	1	0	0	870.375	0.641119	0.6407	0.00808988	7	0.00656062	11	0	38.2488	5.18319e-06
2	1	0	1	0	0	883.2	0.694755	0.694302	0.0734015	7	0.00704968	11	0	51.0739	5.09628e-05
2	1	0	1	0	0	896.285	0.629333	0.628856	0.00352388	7	0.00735492	11	0	64.1584	2.21601e-06
2	0	0	1	0	0	909.369	0.56391	0.563509	0.000542244	7	0.00737166	11	0	77.2429	3.05559e-07
2	1	0	0	0	0	922.454	0.498488	0.498025	0.00011321	7	0.00737408	11	0	0.000000000000000E+000	5.63812e-08
2	1	0	1	0	1	935.308	0.465826	0.465416	0.00257405	8	0.0073815	11	0	3.1613	1.19801e-06
2	1	0	1	0	1	948.392	0.531249	0.530821	0.00266354	8	0.00741718	11	0	16.2458	1.41386e-06
2	1	0	1	0	1	961.477	0.596671	0.5962	0.00327247	8	0.00745534	11	0	29.3303	1.95105e-06
2	1	0	0	0	1	974.561	0.662094	0.661671	0.0177766	8	0.00755005	11	0	42.4148	1.17622e-05
2	1	0	1	0	1	987.386	0.673781	0.673342	0.0281881	8	0.00817694	11	0	55.2399	1.89802e-05
2	1	0	0	0	1	1000.47	0.608358	0.607902	0.00159405	8	0.00828715	11	0	68.3244	9.69025e-07
2	0	0	1	0	1	1013.56	0.542935	0.542514	0.00036203	8	0.00829556	11	0	81.4089	1.96406e-07
2	1	0	1	0	1	1026.64	0.477513	0.477036	6.97218e-05	8	0.00829664	11	0	0.0999	3.32598e-08
2	0	0	0	0	0	1039.49	0.486802	0.486355	0.00257936	9	0.0083154	11	0	7.3464	1.25448e-06
2	1	0	1	0	0	1052.58	0.552225	0.55183	0.00266142	9	0.00835088	11	0	20.4309	1.46865e-06
2	1	0	1	0	0	1065.66	0.617647	0.617239	0.00425118	9	0.00839316	11	0	33.5154	2.62399e-06
2	1	0	1	0	0	1078.75	0.68307	0.682625	0.0439967	9	0.00859137	11	0	46.5999	3.00332e-05
2	1	0	1	0	0	1091.57	0.652805	0.65239	0.00982034	9	0.00915983	11	0	59.425	6.4067e-06
2	1	0	1	0	0	1104.66	0.587382	0.586888	0.000857401	9	0.00920053	11	0	72.5095	5.03199e-07
2	1	0	0	0	0	1117.74	0.52196	0.521516	0.000176786	9	0.00920514	11	0	0.3996	9.21966e-08
2	1	0	0	0	0	1130.83	0.456538	0.456062	-4.32413e-05	9	0.00920491	11	0	0.5992	-1.97207e-08
2	0	0	1	0	1	1143.68	0.507777	0.50732	0.00253676	10	0.00923543	11	0	11.5414	1.28695e-06
2	1	0	1	0	1	1156.76	0.5732	0.572714	0.00283583	10	0.00927124	11	0	24.6259	1.62412e-06
2	1	0	0	0	1	1169.85	0.638622	0.638181	0.00703786	10	0.00932553	11	0	37.7104	4.49143e-06
2	1	0	1	0	1	1182.67	0.697252	0.696823	0.0774822	10	0.00975824	11	0	50.5355	5.39914e-05
2	1	0	0	0	1	1195.76	0.63183	0.631413	0.00368966	10	0.0100835	11	0	63.62	2.3297e-06
2	1	0	1	0	1	1208.84	0.566407	0.565947	0.000594454	10	0.0101013	11	0	76.7045	3.36429e-07
2	1	0	1	0	1	1221.93	0.500985	0.500568	0.000150149	10	0.0101045	11	0	0.0999	7.51596e-08
2	1	0	1	0	0	1234.78	0.463329	0.462897	0.00260557	11	0.0101113	11	0	2.6619	1.20611e-06
2	1	0	0	0	0	1247.87	0.528752	0.528309	0.00252447	11	0.0101472	11	0	15.7464	1.3337e-06
2	1	0	1	0	0	1260.95	0.594174	0.5937	0.00314419	11	0.0101848	11	0	28.8309	1.86671e-06
2	1	0	1	0	0	1274.03	0.659597	0.659178	0.0151716	11	0.0102695	11	0	41.9154	1.00008e-05
2	1	0	1	0	0	1286.86	0.676278	0.675873	0.0303763	11	0.0108623	11	0	54.7405	2.05305e-05
2	1	0	1	0	0	1299.94	0.610855	0.610436	0.00170997	11	0.0109809	11	0	67.825	1.04383e-06
2	1	0	1	0	0	1313.03	0.545432	0.544986	0.000445769	11	0.0109898	11	0	80.9095	2.42938e-07
2	0	0	0	0	0	1326.11	0.48001	0.47956	0.000121304	11	0.0109911	11	0	0.2996	5.81725e-08
2	1	0	1	0	1	1338.97	0.484305	0.483845	0.00257149	12	0.0110088	11	0	6.847	1.2442e-06
2	1	0	1	0	1	1352.05	0.549728	0.549277	0.00259098	12	0.0110439	11	0	19.9315	1.42317e-06
2	1	0	1	0	1	1365.14	0.615149	0.614724	0.00401392	12	0.0110848	11	0	33.0159	2.46745e-06
2	1	0	0	0	1	1378.22	0.680572	0.680121	0.0378626	12	0.0112572	11	0	46.1004	2.57512e-05
2	1	0	0	0	1	1391.05	0.655302	0.65485	0.010581	12	0.0118186	11	0	58.9256	6.92895e-06
2	1	0	1	0	1	1404.13	0.589879	0.589411	0.000883178	12	0.0118618	11	0	72.0101	5.20555e-07
2	1	0	1	0	1	1417.21	0.524458	0.524007	0.000278979	12	0.0118667	11	0	1.4982	1.46187e-07
2	1	0	1	0	1	1430.3	0.459035	0.458559	-5.84277e-05	12	0.0118672	11	0	0.2996	-2.67925e-08
2	1	0	0	0	0	1443.15	0.50528	0.504852	0.00267583	13	0.0118964	11	0	11.052	1.3509e-06
2	1	0	1	0	0	1456.24	0.570703	0.570232	0.00277883	13	0.0119324	11	0	24.1365	1.58458e-06
2	1	0	1	0	0	1469.32	0.636125	0.635689	0.00634904	13	0.0119833	11	0	37.221	4.03602e-06
2	1	0	1	0	0	1482.15	0.699749	0.69927	0.0830782	13	0.0123656	11	0	50.0461	5.80941e-05
2	1	0	1	0	0	1495.23	0.634327	0.633892	0.00394522	13	0.0127167	11	0	63.1306	2.50084e-06
2	0	0	1	0	0	1508.32	0.568904	0.568487	0.000587262	13	0.0127353	11	0	76.2151	3.33851e-07
2	1	0	0	0	0	1521.4	0.503482	0.503032	0.000215196	13	0.0127388	11	0	0.4994	1.08251e-07
2	0	0	1	0	1	1534.25	0.460832	0.46036	0.00255777	14	0.0127444	11	0	2.1525	1.1775e-06
2	1	0	1	0	1	1547.34	0.526255	0.52583	0.00261755	14	0.0127803	11	0	15.237	1.37639e-06
2	1	0	1	0	1	1560.42	0.591677	0.591204	0.00301493	14	0.012818	11	0	28.3215	1.78244e-06
2	1	0	0	0	1	1573.51	0.6571	0.656718	0.0132604	14	0.0128956	11	0	41.406	8.70837e-06
2	1	0	1	0	1	1586.33	0.678774	0.678324	0.0332182	14	0.0134635	11	0	54.2311	2.25327e-05
2	1	0	0	0	1	1599.42	0.613352	0.612915	0.00172197	14	0.0135929	11	0	67.3156	1.05542e-06
2	0	0	1	0	1	1612.5	0.547929	0.547513	0.000538905	14	0.0136028	11	0	80.4001	2.95057e-07
2	0	0	1	0	1	1625.59	0.482507	0.482068	0.000266631	14	0.0136055	11	0	0.0999	1.28534e-07
2	1	0	1	0	0	1638.44	0.481807	0.481361	0.00272707	15	0.0136226	11	0	6.3865	1.31271e-06
2	1	0	0	0	0	1651.53	0.54723	0.546803	0.00271704	15	0.0136588	11	0	19.471	1.48569e-06
2	1	0	1	0	0	1664.61	0.612652	0.61218	0.00393329	15	0.0137	11	0	32.5555	2.40788e-06
2	1	0	1	0	0	1677.69	0.678075	0.677672	0.0327899	15	0.0138527	11	0	45.64	2.22208e-05
2	1	0	1	0	0	1690.52	0.6578	0.657406	0.0116701	15	0.0144114	11	0	58.4651	7.67198e-06
2	1	0	1	0	0	1703.6	0.592377	0.591947	0.000978036	15	0.0144595	11	0	71.5496	5.78946e-07
2	0	0	1	0	0	1716.69	0.526955	0.526507	0.000330567	15	0.0144659	11	0	84.6341	1.74046e-07
2	1	0	0	0	0	1729.77	0.461532	0.461096	0.000121966	15	0.0144674	11	0	0.1997	5.62381e-08
2	1	0	0	0	0	1732.07	0.450021	0.449649	0.00113604	15	0.0144674	11	0	0.029	5.10817e-07