File: ACS_Catal_2026/Figures_Na_K/main_figures/data/EC/20251112_2-148_alpha_reproducibility/20251112_2-148_004_Na_first_2_K2_01_CVA_C02.mpt
EC-Lab ASCII FILE
Nb header lines : 66

Cyclic Voltammetry Advanced

Run on channel : 2 (SN 69290)
User :
CE vs. WE compliance from -10 V to 10 V
Electrode connection : standard
Potential control : Ewe
Ewe ctrl range : min = -1.00 V, max = 1.00 V
Safety Limits :
	Do not start on E overload
Acquisition started on : 11/12/2025 17:44:04.753
Loaded Setting File :  C:\Users\User\Documents\EC-Lab\Data\Yatsuzuka\20251112_2-148_alpha_reproducibility\20251112_2-148_002_alpha_reproducibility_2_K1.mps
Saved on :
	File : 20251112_2-148_004_Na_first_2_K2_01_CVA_C02.mpr
	Directory : C:\Users\User\Documents\EC-Lab\Data\Yatsuzuka\20251112_2-148_alpha_reproducibility\
	Host : 192.109.209.127
Device : SP-150e (SN .003883)
Address : 192.109.209.128
EC-Lab for windows v11.52 (software)
Internet server v11.52 (firmware)
Command interpretor v11.50 (firmware)
Electrode material :
Initial state :
Electrolyte :
Comments :
Electrode surface area : 0.001 cm2
Characteristic mass : 0.001 g
Equivalent Weight : 0.000 g/eq.
Density : 0.000 g/cm3
Volume (V) : 0.001 cm3
Cycle Definition : Charge/Discharge alternance
Ei (V)              0.350
vs.                 Ref
ti (h:m:s)          0:00:10.0000
dti (s)             0.0000
dE/dt               10.000
dE/dt unit          mV/s
E1 (V)              0.450
vs.                 Ref
t1 (h:m:s)          0:00:0.0000
dt1 (s)             0.1000
Step percent        50
N                   10
E range min (V)     -1.000
E range max (V)     1.000
I Range             Auto
I Range min         Unset
I Range max         Unset
I Range init        Unset
Bandwidth           5
E2 (V)              0.350
vs.                 Ref
t2 (h:m:s)          0:00:0.0000
dt2 (s)             0.1000
nc cycles           9
nr                  1
Reverse Scan        0
Ef (V)              0.000
vs.                 Eoc
tf (h:m:s)          0:00:0.0000
dtf (s)             0.1000

mode	ox/red	error	control changes	Ns changes	counter inc.	time/s	control/V	Ewe/V	<I>/mA	cycle number	(Q-Qo)/C	I Range	Ns	step time/s	P/W
2	0	0	0	0	0	0.000000000000000E+000	0.349989	0.349459	-0.0171605	1	0.0000000E+000	13	0	0.000000000000000E+000	-5.9969e-06
2	1	0	1	0	0	1.7855	0.367843	0.36738	0.021744	1	5.84367e-05	13	0	1.758	7.9883e-06
2	1	0	1	0	0	3.5334	0.385322	0.384861	0.0381742	1	0.000113104	13	0	3.5059	1.46918e-05
2	1	0	1	0	0	5.2813	0.402801	0.402348	0.0226947	1	0.000164004	13	0	5.2538	9.13119e-06
2	1	0	1	0	0	7.0293	0.420281	0.419777	0.0300071	1	0.000211372	13	0	7.0018	1.25963e-05
2	1	0	1	0	0	8.7772	0.43776	0.437277	0.0218812	1	0.000255847	13	0	8.7497	9.56814e-06
2	0	0	1	0	0	10.5358	0.444653	0.444154	-0.0123522	1	0.00027601	13	0	0.4944	-5.48628e-06
2	0	0	1	0	0	12.2837	0.427173	0.426633	-0.0221208	1	0.000237248	13	0	2.2423	-9.43745e-06
2	0	0	1	0	0	14.0317	0.409693	0.409181	-0.0364872	1	0.000193704	13	0	3.9903	-1.49298e-05
2	0	0	1	0	0	15.7796	0.392214	0.391744	-0.0238297	1	0.000145793	13	0	5.7382	-9.33514e-06
2	0	0	1	0	0	17.5275	0.374735	0.374208	-0.0231872	1	9.27933e-05	13	0	7.4861	-8.67683e-06
2	0	0	1	0	0	19.2755	0.357255	0.356783	-0.0442421	1	3.38545e-05	13	0	9.2341	-1.57848e-05
2	1	0	1	0	1	20.99	0.359902	0.35942	0.0425116	2	3.59271e-05	13	0	0.9089	1.52795e-05
2	1	0	1	0	1	22.7379	0.377382	0.376919	0.0262093	2	9.08628e-05	13	0	2.6568	9.87878e-06
2	1	0	1	0	1	24.4859	0.394861	0.394378	0.0221508	2	0.000142588	13	0	4.4048	8.7358e-06
2	1	0	1	0	1	26.2338	0.41234	0.411864	0.0374918	2	0.000190925	13	0	6.1527	1.54415e-05
2	1	0	1	0	1	27.9817	0.429819	0.42934	0.0191784	2	0.000236294	13	0	7.9006	8.23403e-06
2	1	0	1	0	1	29.7297	0.447299	0.446851	0.0192889	2	0.00027911	13	0	9.6486	8.61925e-06
2	0	0	1	0	1	31.4233	0.435762	0.435296	-0.026449	2	0.00025656	13	0	1.3983	-1.15131e-05
2	0	0	1	0	1	33.1713	0.418283	0.417766	-0.0148051	2	0.000215188	13	0	3.1463	-6.18507e-06
2	0	0	1	0	1	34.9192	0.400805	0.400279	-0.0334236	2	0.000169529	13	0	4.8942	-1.33788e-05
2	0	0	1	0	1	36.6671	0.383325	0.382824	-0.0390788	2	0.000119067	13	0	6.6421	-1.49603e-05
2	0	0	1	0	1	38.4151	0.365845	0.365359	-0.023683	2	6.31536e-05	13	0	8.3901	-8.6528e-06
2	0	0	1	0	0	40.0297	0.350314	0.349866	0.0194397	3	7.20165e-06	13	0	0.000000000000000E+000	6.80127e-06
2	1	0	1	0	0	41.8376	0.368392	0.367942	0.0213636	3	6.31372e-05	13	0	1.8079	7.86058e-06
2	1	0	1	0	0	43.5855	0.385871	0.385424	0.0398744	3	0.000116601	13	0	3.5558	1.53685e-05
2	1	0	1	0	0	45.3335	0.403351	0.402872	0.024892	3	0.000166699	13	0	5.3038	1.00283e-05
2	1	0	1	0	0	47.0814	0.42083	0.420347	0.0180203	3	0.000213367	13	0	7.0517	7.57478e-06
2	1	0	1	0	0	48.8293	0.438309	0.437828	0.0337381	3	0.00025738	13	0	8.7996	1.47715e-05
2	0	0	1	0	0	50.5829	0.444152	0.443623	-0.0263392	3	0.00027503	13	0	0.5443	-1.16847e-05
2	0	0	1	0	0	52.3309	0.426673	0.426154	-0.0262338	3	0.000235895	13	0	2.2923	-1.11796e-05
2	0	0	1	0	0	54.0788	0.409195	0.408688	-0.0165971	3	0.000192278	13	0	4.0402	-6.78303e-06
2	0	0	1	0	0	55.8267	0.391715	0.391192	-0.0359868	3	0.000144249	13	0	5.7881	-1.40778e-05
2	0	0	1	0	0	57.5747	0.374235	0.373779	-0.0314341	3	9.10982e-05	13	0	7.5361	-1.17494e-05
2	0	0	1	0	0	59.3226	0.356756	0.356239	-0.0327218	3	3.21136e-05	13	0	9.284	-1.16568e-05
2	1	0	1	0	1	61.0371	0.360402	0.359935	0.0435971	4	3.84208e-05	13	0	1.0088	1.56921e-05
2	1	0	1	0	1	62.7851	0.377881	0.377375	0.0209354	4	9.32281e-05	13	0	2.7568	7.9005e-06
2	1	0	1	0	1	64.533	0.39536	0.394902	0.0359753	4	0.000144762	13	0	4.5047	1.42067e-05
2	1	0	1	0	1	66.2809	0.41284	0.412325	0.0188303	4	0.000192899	13	0	6.2526	7.76419e-06
2	1	0	1	0	1	68.0289	0.430319	0.42984	0.034026	4	0.000238074	13	0	8.0006	1.46257e-05
2	1	0	1	0	1	69.7768	0.447798	0.44729	0.0152648	4	0.000280833	13	0	9.7485	6.82778e-06
2	0	0	1	0	1	71.5305	0.434664	0.434115	-0.0136337	4	0.000254662	13	0	1.4933	-5.91858e-06
2	0	0	1	0	1	73.2783	0.417184	0.416669	-0.0348397	4	0.00021301	13	0	3.2411	-1.45166e-05
2	0	0	1	0	1	75.0263	0.399705	0.399186	-0.0174567	4	0.000167085	13	0	4.9891	-6.96847e-06
2	0	0	1	0	1	76.7742	0.382227	0.381685	-0.0391582	4	0.00011643	13	0	6.737	-1.49461e-05
2	0	0	1	0	1	78.5221	0.364747	0.36426	-0.0263578	4	6.0264e-05	13	0	8.4849	-9.60109e-06
2	1	0	1	0	0	80.2217	0.352261	0.351799	0.0327276	5	1.37335e-05	12	0	0.1948	1.15135e-05
2	1	0	1	0	0	81.9847	0.36989	0.369426	0.0352885	5	6.91362e-05	13	0	1.9578	1.30365e-05
2	1	0	1	0	0	83.7325	0.38737	0.386853	0.0218101	5	0.000122224	13	0	3.7056	8.43729e-06
2	1	0	1	0	0	85.4805	0.404849	0.404389	0.0340896	5	0.000171936	13	0	5.4536	1.37855e-05
2	1	0	1	0	0	87.2284	0.422327	0.421849	0.023868	5	0.000218267	13	0	7.2015	1.00687e-05
2	1	0	1	0	0	88.9763	0.439808	0.439308	0.0199047	5	0.000262032	13	0	8.9494	8.7443e-06
2	0	0	1	0	0	90.6701	0.443253	0.442768	-0.0304156	5	0.000273824	13	0	0.5994	-1.3467e-05
2	0	0	1	0	0	92.418	0.425773	0.425265	-0.0143608	5	0.000234532	13	0	2.3473	-6.10713e-06
2	0	0	1	0	0	94.1659	0.408295	0.407749	-0.037122	5	0.000190707	13	0	4.0952	-1.51365e-05
2	0	0	1	0	0	95.9139	0.390816	0.390296	-0.0206907	5	0.000142536	13	0	5.8432	-8.07547e-06
2	0	0	1	0	0	97.6617	0.373336	0.372819	-0.0235234	5	8.92271e-05	13	0	7.591	-8.76999e-06
2	0	0	1	0	0	99.4097	0.355857	0.355407	-0.029305	5	3.0059e-05	13	0	9.339	-1.04152e-05
2	1	0	1	0	1	101.024	0.360302	0.359829	0.030576	6	3.9179e-05	13	0	0.9988	1.10021e-05
2	1	0	1	0	1	102.772	0.377781	0.3773	0.0374781	6	9.38979e-05	13	0	2.7468	1.41405e-05
2	1	0	1	0	1	104.52	0.395259	0.394823	0.0375836	6	0.000145439	13	0	4.4947	1.48389e-05
2	1	0	1	0	1	106.268	0.41274	0.412237	0.0359405	6	0.000193475	13	0	6.2426	1.4816e-05
2	1	0	1	0	1	108.016	0.430219	0.429776	0.0349129	6	0.000238661	13	0	7.9906	1.50047e-05
2	1	0	1	0	1	109.764	0.447698	0.447235	0.0322228	6	0.000281404	13	0	9.7385	1.44112e-05
2	0	0	1	0	1	111.478	0.435163	0.434638	-0.0311115	6	0.000256628	13	0	1.4433	-1.35222e-05
2	0	0	1	0	1	113.226	0.417685	0.417178	-0.0321209	6	0.000215128	13	0	3.1912	-1.34001e-05
2	0	0	1	0	1	114.973	0.400204	0.399691	-0.035248	6	0.000169398	13	0	4.9391	-1.40883e-05
2	0	0	1	0	1	116.721	0.382725	0.382247	-0.0372398	6	0.000118951	13	0	6.6871	-1.42348e-05
2	0	0	1	0	1	118.469	0.365246	0.364753	-0.0386699	6	6.30757e-05	13	0	8.435	-1.4105e-05
2	1	0	1	0	0	120.169	0.351762	0.351348	0.0285255	7	1.35389e-05	12	0	0.1299	1.00224e-05
2	1	0	1	0	0	121.932	0.369391	0.368948	0.0411102	7	6.85273e-05	13	0	1.8928	1.51675e-05
2	1	0	1	0	0	123.68	0.386869	0.386425	0.0319726	7	0.000121701	13	0	3.6407	1.2355e-05
2	1	0	1	0	0	125.428	0.40435	0.403903	0.0229447	7	0.000171379	13	0	5.3886	9.26742e-06
2	1	0	1	0	0	127.176	0.421829	0.421351	0.0162619	7	0.000217859	13	0	7.1366	6.85198e-06
2	1	0	1	0	0	128.924	0.439308	0.438788	0.0181144	7	0.000261648	13	0	8.8845	7.94838e-06
2	0	0	1	0	0	130.677	0.443154	0.442611	-0.0155259	7	0.000274651	13	0	0.6443	-6.87194e-06
2	0	0	1	0	0	132.425	0.425674	0.425137	-0.0167109	7	0.000235302	13	0	2.3921	-7.10443e-06
2	0	0	1	0	0	134.173	0.408195	0.407654	-0.0229163	7	0.00019153	13	0	4.1401	-9.34191e-06
2	0	0	1	0	0	135.921	0.390716	0.390186	-0.0260317	7	0.000143423	13	0	5.8881	-1.01572e-05
2	0	0	1	0	0	137.669	0.373237	0.372704	-0.0258111	7	9.01711e-05	13	0	7.6359	-9.6199e-06
2	0	0	1	0	0	139.417	0.355757	0.355325	-0.0259935	7	3.10868e-05	13	0	9.3839	-9.23614e-06
2	1	0	1	0	1	141.131	0.3614	0.360909	0.0237175	8	4.41265e-05	13	0	1.0938	8.55986e-06
2	1	0	1	0	1	142.879	0.37888	0.378397	0.0262683	8	9.86295e-05	13	0	2.8416	9.93985e-06
2	1	0	1	0	1	144.627	0.396359	0.395868	0.0243165	8	0.000149845	13	0	4.5896	9.62614e-06
2	1	0	1	0	1	146.375	0.413838	0.413288	0.0297403	8	0.000197689	13	0	6.3376	1.22913e-05
2	1	0	1	0	1	148.123	0.431318	0.430839	0.0151137	8	0.000242578	13	0	8.0854	6.51158e-06
2	1	0	1	0	1	149.871	0.448797	0.448311	0.0296085	8	0.000285116	13	0	9.8334	1.32738e-05
2	0	0	1	0	1	151.565	0.434264	0.433715	-0.0172586	8	0.000255692	13	0	1.5482	-7.48533e-06
2	0	0	1	0	1	153.313	0.416785	0.41626	-0.0219709	8	0.000214087	13	0	3.2961	-9.14562e-06
2	0	0	1	0	1	155.061	0.399306	0.398815	-0.0217812	8	0.000168163	13	0	5.0441	-8.68666e-06
2	0	0	1	0	1	156.809	0.381825	0.381348	-0.0239876	8	0.000117553	13	0	6.792	-9.14762e-06
2	0	0	1	0	1	158.556	0.364347	0.363884	-0.0265772	8	6.15046e-05	13	0	8.5399	-9.67102e-06
2	1	0	1	0	0	160.216	0.352261	0.351787	0.0309068	9	1.58254e-05	12	0	0.1948	1.08726e-05
2	1	0	1	0	0	161.979	0.36989	0.369464	0.0362611	9	7.13491e-05	13	0	1.9578	1.33972e-05
2	1	0	1	0	0	163.727	0.38737	0.386881	0.0286528	9	0.000124368	13	0	3.7056	1.10852e-05
2	1	0	1	0	0	165.475	0.404849	0.404416	0.022205	9	0.000173888	13	0	5.4536	8.98005e-06
2	1	0	1	0	0	167.223	0.422327	0.421866	0.0348472	9	0.000220183	13	0	7.2015	1.47008e-05
2	1	0	1	0	0	168.971	0.439808	0.439348	0.0155174	9	0.000263876	13	0	8.9494	6.81754e-06
2	0	0	1	0	0	170.729	0.442603	0.442095	-0.0145738	9	0.000274581	13	0	0.7142	-6.44298e-06
2	0	0	1	0	0	172.477	0.425125	0.4246	-0.0311285	9	0.00023515	13	0	2.4621	-1.32172e-05
2	0	0	1	0	0	174.225	0.407646	0.4071	-0.0226626	9	0.000191251	13	0	4.2101	-9.22595e-06
2	0	0	1	0	0	175.973	0.390166	0.389646	-0.0243127	9	0.00014308	13	0	5.9579	-9.47337e-06
2	0	0	1	0	0	177.721	0.372687	0.372201	-0.0428892	9	8.97218e-05	13	0	7.7059	-1.59634e-05
2	0	0	1	0	0	179.469	0.355209	0.354742	-0.0245119	9	3.05365e-05	13	0	9.4538	-8.6954e-06
2	1	0	1	0	1	181.179	0.361901	0.361513	0.0363153	10	4.73686e-05	13	0	1.0937	1.31284e-05
2	1	0	1	0	1	182.926	0.379379	0.378917	0.0287144	10	0.000101792	13	0	2.8416	1.08804e-05
2	1	0	1	0	1	184.674	0.396858	0.396431	0.0381887	10	0.000152899	13	0	4.5896	1.51392e-05
2	1	0	1	0	1	186.422	0.414338	0.413899	0.0288868	10	0.000200528	13	0	6.3374	1.19562e-05
2	1	0	1	0	1	188.17	0.431817	0.431326	0.0169495	10	0.000245336	13	0	8.0854	7.31074e-06
2	1	0	1	0	1	189.918	0.449295	0.448818	0.0253496	10	0.000287831	13	0	9.8333	1.13774e-05
2	0	0	1	0	1	191.677	0.433116	0.432607	-0.0287504	10	0.000254746	13	0	1.5982	-1.24376e-05
2	0	0	1	0	1	193.425	0.415635	0.415119	-0.0234588	10	0.000212856	13	0	3.3461	-9.73821e-06
2	0	0	1	0	1	195.173	0.398157	0.397653	-0.0301483	10	0.00016672	13	0	5.094	-1.19886e-05
2	0	0	1	0	1	196.921	0.380678	0.380154	-0.0286546	10	0.00011588	13	0	6.842	-1.08932e-05
2	0	0	1	0	1	198.668	0.363198	0.362705	-0.0238384	10	5.95018e-05	13	0	8.5898	-8.64633e-06
2	0	0	1	0	1	199.986	0.349989	0.349497	-0.0470155	10	1.31439e-05	13	0	9.9073	-1.64318e-05