File: ACS_Catal_2026/Figures_Na_K/main_figures/data/EC/20251112_2-148_alpha_reproducibility/20251112_2-148_005_gamma_reproducibility_K2_01_CVA_C01.mpt
EC-Lab ASCII FILE
Nb header lines : 66

Cyclic Voltammetry Advanced

Run on channel : 1 (SN 69187)
User :
CE vs. WE compliance from -10 V to 10 V
Electrode connection : standard
Potential control : Ewe
Ewe ctrl range : min = -1.00 V, max = 1.00 V
Safety Limits :
	Do not start on E overload
Acquisition started on : 11/12/2025 20:19:02.947
Loaded Setting File :  C:\Users\User\Documents\EC-Lab\Data\Yatsuzuka\20251030_2-147_gamma_reproducibility\20251030_2-147_001_gamma1_K_1.mps
Saved on :
	File : 20251112_2-148_005_gamma_reproducibility_K2_01_CVA_C01.mpr
	Directory : C:\Users\User\Documents\EC-Lab\Data\Yatsuzuka\20251112_2-148_alpha_reproducibility\
	Host : 192.109.209.127
Device : SP-150e (SN .003883)
Address : 192.109.209.128
EC-Lab for windows v11.52 (software)
Internet server v11.52 (firmware)
Command interpretor v11.50 (firmware)
Electrode material :
Initial state :
Electrolyte :
Comments :
Electrode surface area : 0.001 cm2
Characteristic mass : 0.001 g
Equivalent Weight : 0.000 g/eq.
Density : 0.000 g/cm3
Volume (V) : 0.001 cm3
Cycle Definition : Charge/Discharge alternance
Ei (V)              0.350
vs.                 Ref
ti (h:m:s)          0:00:10.0000
dti (s)             0.0000
dE/dt               10.000
dE/dt unit          mV/s
E1 (V)              0.450
vs.                 Ref
t1 (h:m:s)          0:00:0.0000
dt1 (s)             0.1000
Step percent        50
N                   10
E range min (V)     -1.000
E range max (V)     1.000
I Range             Auto
I Range min         Unset
I Range max         Unset
I Range init        Unset
Bandwidth           5
E2 (V)              0.350
vs.                 Ref
t2 (h:m:s)          0:00:0.0000
dt2 (s)             0.1000
nc cycles           9
nr                  1
Reverse Scan        0
Ef (V)              0.000
vs.                 Eoc
tf (h:m:s)          0:00:0.0000
dtf (s)             0.1000

mode	ox/red	error	control changes	Ns changes	counter inc.	time/s	control/V	Ewe/V	<I>/mA	cycle number	(Q-Qo)/C	I Range	Ns	step time/s	P/W
2	0	0	0	0	0	0.000000000000000E+000	0.34995	0.349647	-0.000544676	1	0.0000000E+000	13	0	0.000000000000000E+000	-1.90445e-07
2	1	0	1	0	0	1.7749	0.3677	0.367448	0.00177859	1	3.02483e-06	13	0	1.7476	6.5354e-07
2	1	0	1	0	0	3.5725	0.385675	0.385424	0.0021687	1	5.97806e-06	13	0	3.5452	8.35868e-07
2	1	0	1	0	0	5.3699	0.40365	0.403381	0.00135615	1	8.74775e-06	13	0	5.3426	5.47046e-07
2	0	0	1	0	0	7.1675	0.421625	0.42137	0.00129696	1	1.13559e-05	13	0	7.1402	5.46498e-07
2	1	0	1	0	0	8.965	0.439601	0.43937	0.00183621	1	1.38107e-05	13	0	8.9377	8.06774e-07
2	0	0	1	0	0	10.6793	0.443245	0.442934	-0.00177452	1	1.45155e-05	13	0	0.6765	-7.85997e-07
2	0	0	1	0	0	12.4768	0.425271	0.425006	-0.000821955	1	1.2432e-05	13	0	2.474	-3.49335e-07
2	1	0	1	0	0	14.2743	0.407295	0.407048	-0.001609	1	1.00934e-05	13	0	4.2715	-6.5494e-07
2	1	0	1	0	0	16.0719	0.38932	0.38909	-0.00102573	1	7.53068e-06	13	0	6.0691	-3.99102e-07
2	1	0	1	0	0	17.8693	0.371345	0.371062	-0.00208727	1	4.72103e-06	13	0	7.8665	-7.74507e-07
2	0	0	1	0	0	19.6669	0.35337	0.353096	-0.00126717	1	1.61353e-06	13	0	9.6641	-4.47433e-07
2	1	0	1	0	1	21.3321	0.363306	0.363053	0.00226409	2	3.12849e-06	13	0	1.3257	8.21983e-07
2	1	0	1	0	1	23.1297	0.381281	0.380987	0.00147121	2	6.03075e-06	13	0	3.1233	5.60511e-07
2	0	0	1	0	1	24.9271	0.399256	0.399035	0.00190455	2	8.79255e-06	13	0	4.9207	7.5998e-07
2	1	0	1	0	1	26.7247	0.417231	0.416997	0.00146475	2	1.13995e-05	13	0	6.7183	6.10796e-07
2	0	0	1	0	1	28.5222	0.435207	0.434923	0.000905035	2	1.38713e-05	13	0	8.5158	3.9362e-07
2	0	0	1	0	1	30.2265	0.447739	0.447527	-0.000812494	2	1.55981e-05	13	0	0.1997	-3.63613e-07
2	0	0	1	0	1	32.0241	0.429764	0.429533	-0.0011365	2	1.35878e-05	13	0	1.9973	-4.88163e-07
2	0	0	1	0	1	33.8215	0.411789	0.411573	-0.00206366	2	1.13182e-05	13	0	3.7947	-8.49347e-07
2	1	0	1	0	1	35.6191	0.393814	0.393552	-0.00077691	2	8.81728e-06	13	0	5.5923	-3.05755e-07
2	1	0	1	0	1	37.4166	0.375838	0.37559	-0.00216316	2	6.07356e-06	13	0	7.3898	-8.12462e-07
2	0	0	1	0	1	39.2141	0.357864	0.357525	-0.00201864	2	3.04565e-06	13	0	9.1873	-7.21713e-07
2	1	0	1	0	0	40.8794	0.358813	0.358532	0.00117498	3	3.0112e-06	13	0	0.8814	4.21266e-07
2	0	0	1	0	0	42.6769	0.376787	0.376552	0.00185633	3	5.93104e-06	13	0	2.6789	6.99003e-07
2	1	0	1	0	0	44.4744	0.394763	0.394487	0.00152703	3	8.71453e-06	13	0	4.4764	6.02394e-07
2	0	0	1	0	0	46.2719	0.412737	0.41254	0.000798172	3	1.13549e-05	13	0	6.2739	3.29278e-07
2	1	0	1	0	0	48.0694	0.430712	0.430468	0.00201628	3	1.38456e-05	13	0	8.0714	8.67943e-07
2	1	0	1	0	0	49.8669	0.448687	0.44853	0.000922015	3	1.62116e-05	13	0	9.8689	4.13551e-07
2	0	0	1	0	0	51.5713	0.434258	0.434007	-0.00149541	3	1.46983e-05	13	0	1.5479	-6.4902e-07
2	1	0	1	0	0	53.3688	0.416282	0.416053	-0.000719187	3	1.24864e-05	13	0	3.3454	-2.9922e-07
2	0	0	1	0	0	55.1663	0.398307	0.398007	-0.00144505	3	1.00391e-05	13	0	5.1429	-5.75141e-07
2	0	0	1	0	0	56.9638	0.380332	0.380014	-0.00230772	3	7.36578e-06	13	0	6.9404	-8.76965e-07
2	0	0	1	0	0	58.7613	0.362357	0.36207	-0.00162528	3	4.42857e-06	13	0	8.7379	-5.88465e-07
2	0	0	1	0	1	60.4266	0.354318	0.354079	0.000715841	4	2.86962e-06	13	0	0.427	2.53464e-07
2	1	0	1	0	1	62.2241	0.372294	0.372028	0.00234271	4	5.80352e-06	13	0	2.2245	8.71551e-07
2	1	0	1	0	1	64.0216	0.390268	0.390085	0.00188747	4	8.62587e-06	13	0	4.022	7.36276e-07
2	1	0	1	0	1	65.8191	0.408244	0.408054	0.000930688	4	1.12936e-05	13	0	5.8195	3.79771e-07
2	0	0	1	0	1	67.6167	0.426219	0.426037	0.00181885	4	1.38085e-05	13	0	7.6171	7.74899e-07
2	0	0	1	0	1	69.4141	0.444194	0.443969	0.00122904	4	1.62021e-05	13	0	9.4145	5.45656e-07
2	0	0	1	0	1	71.1185	0.438751	0.438486	-0.00180549	4	1.57845e-05	13	0	1.0985	-7.91681e-07
2	0	0	1	0	1	72.916	0.420776	0.42051	-0.00078279	4	1.36423e-05	13	0	2.896	-3.29171e-07
2	1	0	1	0	1	74.7135	0.402801	0.40257	-0.00192688	4	1.12667e-05	13	0	4.6935	-7.75706e-07
2	0	0	1	0	1	76.511	0.384827	0.384537	-0.001341	4	8.65673e-06	13	0	6.491	-5.15664e-07
2	0	0	1	0	1	78.3085	0.366851	0.366569	-0.0017344	4	5.77996e-06	13	0	8.2885	-6.35776e-07
2	1	0	0	0	0	79.9962	0.35005	0.349819	0.00188328	5	2.84447e-06	13	0	0.000000000000000E+000	6.58807e-07
2	1	0	1	0	0	81.7713	0.3678	0.367551	0.00116924	5	5.67132e-06	13	0	1.7751	4.29756e-07
2	0	0	1	0	0	83.5689	0.385775	0.385484	0.00126565	5	8.52449e-06	13	0	3.5727	4.87886e-07
2	0	0	1	0	0	85.3663	0.40375	0.40346	0.00194902	5	1.12228e-05	13	0	5.3701	7.86354e-07
2	1	0	1	0	0	87.1639	0.421725	0.421489	0.00139176	5	1.37762e-05	13	0	7.1677	5.86611e-07
2	1	0	1	0	0	88.9613	0.4397	0.439485	0.000832085	5	1.62027e-05	13	0	8.9651	3.65689e-07
2	0	0	1	0	0	90.6657	0.443245	0.442979	-0.0013139	5	1.68591e-05	13	0	0.6491	-5.82028e-07
2	0	0	1	0	0	92.4632	0.425271	0.425006	-0.000902972	5	1.47738e-05	13	0	2.4466	-3.83769e-07
2	0	0	1	0	0	94.2607	0.407295	0.407028	-0.00191446	5	1.24596e-05	13	0	4.2441	-7.79237e-07
2	1	0	1	0	0	96.0583	0.38932	0.389081	-0.00115288	5	9.91782e-06	13	0	6.0417	-4.48566e-07
2	1	0	1	0	0	97.8557	0.371345	0.371081	-0.00129031	5	7.12147e-06	13	0	7.8391	-4.78811e-07
2	0	0	1	0	0	99.6533	0.35337	0.35307	-0.00210336	5	4.04333e-06	13	0	9.6367	-7.42634e-07
2	1	0	1	0	1	101.318	0.363306	0.363071	0.000964997	6	5.54638e-06	13	0	1.3257	3.50363e-07
2	1	0	1	0	1	103.116	0.381281	0.381015	0.00241765	6	8.42205e-06	13	0	3.1233	9.21162e-07
2	1	0	1	0	1	104.913	0.399256	0.399001	0.00108617	6	1.11509e-05	13	0	4.9207	4.33381e-07
2	1	0	1	0	1	106.711	0.417231	0.417023	0.00161425	6	1.37335e-05	13	0	6.7183	6.73181e-07
2	1	0	1	0	1	108.509	0.435207	0.434933	0.00176548	6	1.61685e-05	13	0	8.5158	7.67863e-07
2	1	0	1	0	1	110.213	0.447739	0.447542	-0.00150585	6	1.78833e-05	13	0	0.1997	-6.7393e-07
2	0	0	1	0	1	112.01	0.429764	0.429481	-0.00113963	6	1.5883e-05	13	0	1.9973	-4.89449e-07
2	1	0	1	0	1	113.808	0.411789	0.411581	-0.000702886	6	1.36215e-05	13	0	3.7947	-2.89295e-07
2	1	0	1	0	1	115.605	0.393814	0.393496	-0.0017913	6	1.11385e-05	13	0	5.5923	-7.04869e-07
2	1	0	1	0	1	117.403	0.375838	0.375618	-0.0015586	6	8.42794e-06	13	0	7.3898	-5.85437e-07
2	1	0	1	0	1	119.2	0.357864	0.357512	-0.000983886	6	5.43404e-06	13	0	9.1873	-3.51751e-07
2	0	0	1	0	0	120.866	0.358813	0.358558	0.0010931	7	5.38824e-06	13	0	0.8489	3.91938e-07
2	0	0	1	0	0	122.663	0.376787	0.37656	0.00226303	7	8.2835e-06	13	0	2.6464	8.52168e-07
2	1	0	1	0	0	124.461	0.394763	0.394475	0.0011387	7	1.10458e-05	13	0	4.4439	4.49189e-07
2	0	0	1	0	0	126.258	0.412737	0.412517	0.00140734	7	1.36593e-05	13	0	6.2414	5.80553e-07
2	0	0	1	0	0	128.056	0.430712	0.430457	0.00195947	7	1.61249e-05	13	0	8.0389	8.43467e-07
2	0	0	1	0	0	129.853	0.448687	0.448503	0.000868923	7	1.84739e-05	13	0	9.8364	3.89715e-07
2	0	0	1	0	0	131.558	0.434258	0.433976	-0.00184129	7	1.69551e-05	13	0	1.5479	-7.99074e-07
2	0	0	1	0	0	133.355	0.416282	0.416032	-0.00134701	7	1.47487e-05	13	0	3.3454	-5.60397e-07
2	0	0	1	0	0	135.153	0.398307	0.398048	-0.00114064	7	1.23169e-05	13	0	5.1429	-4.5403e-07
2	0	0	1	0	0	136.95	0.380332	0.380062	-0.00246323	7	9.66395e-06	13	0	6.9404	-9.36178e-07
2	0	0	1	0	0	138.748	0.362357	0.3621	-0.00198023	7	6.74975e-06	13	0	8.7379	-7.17043e-07
2	1	0	1	0	1	140.413	0.354318	0.354039	0.00103448	8	5.20912e-06	13	0	0.3995	3.66246e-07
2	0	0	1	0	1	142.21	0.372294	0.372085	0.00174143	8	8.1194e-06	13	0	2.197	6.4796e-07
2	1	0	1	0	1	144.008	0.390268	0.390041	0.00198656	8	1.09162e-05	13	0	3.9945	7.74838e-07
2	0	0	1	0	1	145.805	0.408244	0.407993	0.000834749	8	1.3571e-05	13	0	5.792	3.40571e-07
2	0	0	1	0	1	147.603	0.426219	0.425944	0.00187657	8	1.60721e-05	13	0	7.5896	7.99312e-07
2	1	0	1	0	1	149.4	0.444194	0.443988	0.00151177	8	1.84497e-05	13	0	9.387	6.71207e-07
2	1	0	1	0	1	151.105	0.438751	0.438523	-0.00107775	8	1.80306e-05	13	0	1.0985	-4.72617e-07
2	0	0	1	0	1	152.902	0.420776	0.420451	-0.00188315	8	1.58876e-05	13	0	2.896	-7.91774e-07
2	0	0	1	0	1	154.7	0.402801	0.402506	-0.00167086	8	1.35202e-05	13	0	4.6935	-6.72532e-07
2	0	0	1	0	1	156.497	0.384827	0.384548	-0.00105196	8	1.09299e-05	13	0	6.491	-4.0453e-07
2	0	0	1	0	1	158.295	0.366851	0.366571	-0.00135182	8	8.0904e-06	13	0	8.2885	-4.95538e-07
2	1	0	0	0	0	159.983	0.35005	0.3498	0.00329806	9	5.1827e-06	13	0	0.000000000000000E+000	1.15366e-06
2	1	0	1	0	0	161.758	0.3678	0.367574	0.00217763	9	7.98911e-06	13	0	1.7751	8.00441e-07
2	1	0	1	0	0	163.555	0.385775	0.385514	0.000809737	9	1.08264e-05	13	0	3.5727	3.12165e-07
2	0	0	1	0	0	165.353	0.40375	0.403452	0.000903639	9	1.35137e-05	13	0	5.3701	3.64575e-07
2	0	0	1	0	0	167.15	0.421725	0.421477	0.00143635	9	1.60562e-05	13	0	7.1677	6.05389e-07
2	1	0	1	0	0	168.948	0.4397	0.4395	0.00192284	9	1.84636e-05	13	0	8.9651	8.45087e-07
2	0	0	1	0	0	170.652	0.443245	0.44294	-0.00102014	9	1.91212e-05	13	0	0.6491	-4.51858e-07
2	0	0	1	0	0	172.45	0.425271	0.425011	-0.00188409	9	1.70535e-05	13	0	2.4466	-8.0076e-07
2	1	0	1	0	0	174.247	0.407295	0.407024	-0.00138866	9	1.47522e-05	13	0	4.2441	-5.65218e-07
2	1	0	1	0	0	176.045	0.38932	0.388989	-0.000778949	9	1.22173e-05	13	0	6.0417	-3.03002e-07
2	0	0	1	0	0	177.842	0.371345	0.371098	-0.00217351	9	9.43702e-06	13	0	7.8391	-8.06587e-07
2	0	0	1	0	0	179.64	0.35337	0.353065	-0.00266054	9	6.38168e-06	13	0	9.6367	-9.39344e-07
2	1	0	1	0	1	181.305	0.363306	0.363042	0.00161394	10	7.87079e-06	13	0	1.2982	5.85926e-07
2	0	0	1	0	1	183.102	0.381281	0.381018	0.00124291	10	1.07331e-05	13	0	3.0958	4.7357e-07
2	1	0	1	0	1	184.9	0.399256	0.399013	0.002025	10	1.34505e-05	13	0	4.8932	8.08e-07
2	1	0	1	0	1	186.697	0.417231	0.41701	0.00080703	10	1.60253e-05	13	0	6.6908	3.3654e-07
2	0	0	1	0	1	188.495	0.435207	0.434967	0.00138188	10	1.84629e-05	13	0	8.4883	6.01074e-07
2	0	0	1	0	1	190.199	0.447739	0.447521	-0.00052577	10	2.01674e-05	13	0	0.2271	-2.35293e-07
2	0	0	1	0	1	191.997	0.429764	0.429522	-0.00162834	10	1.81686e-05	13	0	2.0247	-6.99409e-07
2	0	0	1	0	1	193.794	0.411789	0.411549	-0.00207594	10	1.59212e-05	13	0	3.8221	-8.54351e-07
2	0	0	1	0	1	195.592	0.393814	0.39351	-0.00103932	10	1.34539e-05	13	0	5.6197	-4.08983e-07
2	1	0	1	0	1	197.389	0.375838	0.375575	-0.00150299	10	1.07483e-05	13	0	7.4172	-5.64486e-07
2	1	0	1	0	1	199.187	0.357864	0.35755	-0.00246653	10	7.7757e-06	13	0	9.2147	-8.81907e-07
2	0	0	0	0	1	199.971	0.35	0.349685	-0.00418121	10	6.35646e-06	13	0	9.9986	-1.46211e-06