File: ACS_Catal_2026/Figures_Na_K/main_figures/data/EC/20251112_2-148_alpha_reproducibility/20251112_2-148_006_gamma_reproducibility_2_K2_01_CVA_C02.mpt
EC-Lab ASCII FILE
Nb header lines : 66

Cyclic Voltammetry Advanced

Run on channel : 2 (SN 69290)
User :
CE vs. WE compliance from -10 V to 10 V
Electrode connection : standard
Potential control : Ewe
Ewe ctrl range : min = -1.00 V, max = 1.00 V
Safety Limits :
	Do not start on E overload
Acquisition started on : 11/12/2025 20:23:02.181
Loaded Setting File :  C:\Users\User\Documents\EC-Lab\Data\Yatsuzuka\20251112_2-148_alpha_reproducibility\20251112_2-148_002_alpha_reproducibility_2_K1.mps
Saved on :
	File : 20251112_2-148_006_gamma_reproducibility_2_K2_r_01_CVA_C02.mpr
	Directory : C:\Users\User\Documents\EC-Lab\Data\Yatsuzuka\20251112_2-148_alpha_reproducibility\
	Host : 192.109.209.127
Device : SP-150e (SN .003883)
Address : 192.109.209.128
EC-Lab for windows v11.52 (software)
Internet server v11.52 (firmware)
Command interpretor v11.50 (firmware)
Electrode material :
Initial state :
Electrolyte :
Comments :
Electrode surface area : 0.001 cm2
Characteristic mass : 0.001 g
Equivalent Weight : 0.000 g/eq.
Density : 0.000 g/cm3
Volume (V) : 0.001 cm3
Cycle Definition : Charge/Discharge alternance
Ei (V)              0.350
vs.                 Ref
ti (h:m:s)          0:00:10.0000
dti (s)             0.0000
dE/dt               10.000
dE/dt unit          mV/s
E1 (V)              0.450
vs.                 Ref
t1 (h:m:s)          0:00:0.0000
dt1 (s)             0.1000
Step percent        50
N                   10
E range min (V)     -1.000
E range max (V)     1.000
I Range             Auto
I Range min         Unset
I Range max         Unset
I Range init        Unset
Bandwidth           5
E2 (V)              0.350
vs.                 Ref
t2 (h:m:s)          0:00:0.0000
dt2 (s)             0.1000
nc cycles           9
nr                  1
Reverse Scan        0
Ef (V)              0.000
vs.                 Eoc
tf (h:m:s)          0:00:0.0000
dtf (s)             0.1000

mode	ox/red	error	control changes	Ns changes	counter inc.	time/s	control/V	Ewe/V	<I>/mA	cycle number	(Q-Qo)/C	I Range	Ns	step time/s	P/W
2	1	0	0	0	0	0.000000000000000E+000	0.349989	0.349514	0.00293354	1	0.0000000E+000	13	0	0.000000000000000E+000	1.02532e-06
2	1	0	1	0	0	1.7755	0.367743	0.367291	0.0043872	1	7.58956e-06	13	0	1.748	1.61138e-06
2	1	0	1	0	0	3.5733	0.385722	0.385302	0.00395662	1	1.51557e-05	13	0	3.5458	1.52449e-06
2	1	0	1	0	0	5.3712	0.403699	0.403276	0.00319777	1	2.2418e-05	13	0	5.3437	1.28958e-06
2	1	0	1	0	0	7.1691	0.421679	0.42127	0.00445949	1	2.93709e-05	13	0	7.1416	1.87865e-06
2	1	0	1	0	0	8.9669	0.439658	0.439237	0.00478886	1	3.60933e-05	13	0	8.9394	2.10345e-06
2	0	0	1	0	0	10.6757	0.443253	0.442748	-0.00145999	1	3.83853e-05	13	0	0.6493	-6.46408e-07
2	0	0	1	0	0	12.4735	0.425275	0.424802	-0.00401871	1	3.34903e-05	13	0	2.4471	-1.70716e-06
2	0	0	1	0	0	14.2714	0.407296	0.406891	-0.00266028	1	2.79074e-05	13	0	4.245	-1.08244e-06
2	0	0	1	0	0	16.0693	0.389317	0.388873	-0.00429987	1	2.1742e-05	13	0	6.0429	-1.6721e-06
2	1	0	1	0	0	17.8671	0.371339	0.370905	-0.00247011	1	1.49918e-05	13	0	7.8407	-9.16175e-07
2	0	0	1	0	0	19.665	0.35336	0.352924	-0.00561247	1	7.6064e-06	13	0	9.6386	-1.98078e-06
2	1	0	1	0	1	21.3296	0.363298	0.362922	0.00358229	2	1.11819e-05	13	0	1.2985	1.30009e-06
2	1	0	1	0	1	23.1275	0.381277	0.38089	0.00274542	2	1.82488e-05	13	0	3.0964	1.0457e-06
2	0	0	1	0	1	24.9253	0.399256	0.398802	0.00352167	2	2.51011e-05	13	0	4.8942	1.40445e-06
2	1	0	1	0	1	26.7232	0.417233	0.416787	0.00453702	2	3.1682e-05	13	0	6.6921	1.89097e-06
2	1	0	1	0	1	28.5211	0.435213	0.434782	0.0028016	2	3.80258e-05	13	0	8.49	1.21808e-06
2	0	0	1	0	1	30.2248	0.447748	0.447269	-0.00346725	2	4.26276e-05	13	0	0.1998	-1.55079e-06
2	0	0	1	0	1	32.0227	0.429769	0.429277	-0.00283258	2	3.78514e-05	13	0	1.9977	-1.21596e-06
2	0	0	1	0	1	33.8205	0.411791	0.411344	-0.00198921	2	3.2327e-05	13	0	3.7955	-8.1825e-07
2	0	0	1	0	1	35.6184	0.393812	0.393374	-0.00272361	2	2.6272e-05	13	0	5.5934	-1.0714e-06
2	0	0	1	0	1	37.4163	0.375833	0.37538	-0.00274427	2	1.96683e-05	13	0	7.3913	-1.03014e-06
2	0	0	1	0	1	39.2141	0.357855	0.357385	-0.00318325	2	1.24697e-05	13	0	9.1891	-1.13764e-06
2	1	0	1	0	0	40.8787	0.358804	0.358336	0.0022918	3	1.22962e-05	13	0	0.849	8.21236e-07
2	1	0	1	0	0	42.6766	0.376782	0.376363	0.00366938	3	1.92881e-05	13	0	2.6469	1.38102e-06
2	1	0	1	0	0	44.4745	0.394761	0.394368	0.00515665	3	2.60712e-05	13	0	4.4448	2.03362e-06
2	1	0	1	0	0	46.2723	0.41274	0.412324	0.00406632	3	3.2572e-05	13	0	6.2426	1.67664e-06
2	1	0	1	0	0	48.0702	0.430717	0.430278	0.00260258	3	3.88258e-05	13	0	8.0405	1.11983e-06
2	0	0	1	0	0	49.8681	0.448697	0.448224	0.0021525	3	4.48614e-05	13	0	9.8384	9.64804e-07
2	0	0	1	0	0	51.5718	0.434264	0.433801	-0.00344069	3	4.13081e-05	13	0	1.5482	-1.49257e-06
2	0	0	1	0	0	53.3697	0.416285	0.415773	-0.00316865	3	3.59442e-05	13	0	3.3461	-1.31744e-06
2	0	0	1	0	0	55.1675	0.398307	0.397824	-0.00243588	3	3.0045e-05	13	0	5.1439	-9.69052e-07
2	0	0	1	0	0	56.9654	0.380328	0.379863	-0.00483083	3	2.36056e-05	13	0	6.9418	-1.83506e-06
2	0	0	1	0	0	58.7633	0.362349	0.361875	-0.00396264	3	1.65826e-05	13	0	8.7397	-1.43398e-06
2	0	0	1	0	1	60.4279	0.354309	0.353855	0.00230714	4	1.28364e-05	13	0	0.4271	8.16396e-07
2	1	0	1	0	1	62.2257	0.372288	0.371874	0.00459422	4	1.97432e-05	13	0	2.2249	1.70847e-06
2	1	0	1	0	1	64.0236	0.390266	0.389859	0.00460319	4	2.65208e-05	13	0	4.0228	1.7946e-06
2	1	0	1	0	1	65.8215	0.408245	0.407824	0.002995	4	3.30241e-05	13	0	5.8207	1.22143e-06
2	1	0	1	0	1	67.6193	0.426224	0.425791	0.00277256	4	3.92601e-05	13	0	7.6185	1.18053e-06
2	1	0	1	0	1	69.4173	0.444202	0.443755	0.00458341	4	4.52638e-05	13	0	9.4165	2.03391e-06
2	1	0	1	0	1	71.1209	0.438759	0.438296	-0.00254346	4	4.44237e-05	13	0	1.0987	-1.11479e-06
2	0	0	1	0	1	72.9188	0.42078	0.420314	-0.004011	4	3.92195e-05	13	0	2.8966	-1.68588e-06
2	0	0	1	0	1	74.7167	0.402801	0.402384	-0.0029463	4	3.34608e-05	13	0	4.6945	-1.18554e-06
2	0	0	1	0	1	76.5145	0.384823	0.384374	-0.00291872	4	2.71793e-05	13	0	6.4923	-1.12188e-06
2	0	0	1	0	1	78.3124	0.366844	0.366351	-0.0056472	4	2.03323e-05	13	0	8.2902	-2.06886e-06
2	0	0	1	0	0	79.9994	0.350039	0.349724	-0.000819777	5	1.33391e-05	13	0	9.9772	-2.86696e-07
2	1	0	1	0	0	81.7749	0.367793	0.367388	0.00339129	5	1.99251e-05	13	0	1.748	1.24592e-06
2	1	0	1	0	0	83.5727	0.385772	0.385326	0.00504044	5	2.67112e-05	13	0	3.5458	1.94221e-06
2	1	0	1	0	0	85.3706	0.40375	0.403357	0.00383455	5	3.3238e-05	13	0	5.3437	1.54669e-06
2	0	0	1	0	0	87.1685	0.421729	0.421309	0.00232119	5	3.94742e-05	13	0	7.1416	9.77939e-07
2	0	0	1	0	0	88.9663	0.439708	0.439295	0.00395624	5	4.54735e-05	13	0	8.9394	1.73796e-06
2	1	0	1	0	0	90.6701	0.443253	0.442792	-0.00147549	5	4.72722e-05	13	0	0.6493	-6.53334e-07
2	0	0	1	0	0	92.4679	0.425275	0.424832	-0.00404177	5	4.22565e-05	13	0	2.4471	-1.71707e-06
2	0	0	1	0	0	94.2658	0.407296	0.406849	-0.00372914	5	3.66487e-05	13	0	4.245	-1.5172e-06
2	0	0	1	0	0	96.0637	0.389317	0.388894	-0.00260883	5	3.05214e-05	13	0	6.0429	-1.01456e-06
2	0	0	1	0	0	97.8615	0.371339	0.370908	-0.00423499	5	2.38485e-05	13	0	7.8407	-1.57079e-06
2	0	0	1	0	0	99.6594	0.35336	0.352879	-0.00546396	5	1.6557e-05	13	0	9.6386	-1.92812e-06
2	1	0	1	0	1	101.324	0.363298	0.362885	0.00278361	6	1.99561e-05	13	0	1.2985	1.01013e-06
2	1	0	1	0	1	103.122	0.381277	0.38081	0.00329795	6	2.67444e-05	13	0	3.0964	1.25589e-06
2	1	0	1	0	1	104.92	0.399256	0.398813	0.00502408	6	3.32874e-05	13	0	4.8942	2.00367e-06
2	1	0	1	0	1	106.718	0.417233	0.416801	0.00243188	6	3.95439e-05	13	0	6.6921	1.01361e-06
2	1	0	1	0	1	108.515	0.435213	0.434754	0.00453666	6	4.5557e-05	13	0	8.49	1.97233e-06
2	1	0	1	0	1	110.219	0.447748	0.44725	-0.00174157	6	4.98914e-05	13	0	0.1998	-7.78916e-07
2	0	0	1	0	1	112.017	0.429769	0.429304	-0.00372861	6	4.51074e-05	13	0	1.9977	-1.60071e-06
2	1	0	1	0	1	113.815	0.411791	0.411269	-0.00183507	6	3.96475e-05	13	0	3.7955	-7.54708e-07
2	1	0	1	0	1	115.613	0.393812	0.393358	-0.00464628	6	3.36785e-05	13	0	5.5934	-1.82765e-06
2	0	0	1	0	1	117.411	0.375833	0.375352	-0.00249152	6	2.71677e-05	13	0	7.3913	-9.35196e-07
2	1	0	1	0	1	119.208	0.357855	0.357402	-0.0035494	6	2.00583e-05	13	0	9.1891	-1.26856e-06
2	1	0	1	0	0	120.873	0.358804	0.358382	0.00508005	7	1.98547e-05	13	0	0.849	1.8206e-06
2	1	0	1	0	0	122.671	0.376782	0.376351	0.00250527	7	2.66544e-05	13	0	2.6469	9.42861e-07
2	1	0	1	0	0	124.469	0.394761	0.394305	0.00433965	7	3.32434e-05	13	0	4.4448	1.71115e-06
2	1	0	1	0	0	126.267	0.41274	0.412309	0.00370817	7	3.95375e-05	13	0	6.2426	1.52891e-06
2	1	0	1	0	0	128.065	0.430717	0.430269	0.00312372	7	4.55805e-05	13	0	8.0405	1.34404e-06
2	1	0	1	0	0	129.862	0.448697	0.448278	0.00426148	7	5.14002e-05	13	0	9.8384	1.91033e-06
2	0	0	1	0	0	131.566	0.434264	0.433779	-0.00387611	7	4.7837e-05	13	0	1.5756	-1.68137e-06
2	0	0	1	0	0	133.364	0.416285	0.415787	-0.00293045	7	4.25295e-05	13	0	3.3735	-1.21845e-06
2	0	0	1	0	0	135.162	0.398307	0.39785	-0.00214899	7	3.67081e-05	13	0	5.1713	-8.54975e-07
2	1	0	1	0	0	136.96	0.380328	0.379881	-0.00302317	7	3.03654e-05	13	0	6.9692	-1.14844e-06
2	1	0	1	0	0	138.758	0.362349	0.361851	-0.00455038	7	2.34369e-05	13	0	8.7671	-1.64656e-06
2	1	0	1	0	1	140.422	0.354309	0.353858	0.0049045	8	1.973e-05	13	0	0.4271	1.73549e-06
2	1	0	1	0	1	142.22	0.372288	0.371883	0.00325664	8	2.64717e-05	13	0	2.2249	1.21109e-06
2	1	0	1	0	1	144.018	0.390266	0.389875	0.00249899	8	3.30875e-05	13	0	4.0228	9.74295e-07
2	1	0	1	0	1	145.816	0.408245	0.407776	0.00292406	8	3.94191e-05	13	0	5.8207	1.19236e-06
2	1	0	1	0	1	147.614	0.426224	0.425779	0.00442022	8	4.54907e-05	13	0	7.6185	1.88204e-06
2	1	0	1	0	1	149.412	0.444202	0.443754	0.00423457	8	5.13319e-05	13	0	9.4165	1.87911e-06
2	0	0	1	0	1	151.115	0.438759	0.438264	-0.00313775	8	5.04329e-05	13	0	1.0987	-1.37516e-06
2	0	0	1	0	1	152.913	0.42078	0.4203	-0.00364799	8	4.52814e-05	13	0	2.8966	-1.53325e-06
2	0	0	1	0	1	154.711	0.402801	0.402324	-0.00301348	8	3.95993e-05	13	0	4.6945	-1.2124e-06
2	0	0	1	0	1	156.509	0.384823	0.384369	-0.00219203	8	3.3399e-05	13	0	6.4923	-8.42548e-07
2	0	0	1	0	1	158.307	0.366844	0.366392	-0.0030682	8	2.66365e-05	13	0	8.2902	-1.12416e-06
2	1	0	0	0	0	159.994	0.350039	0.349629	0.00143267	9	1.97753e-05	13	0	0.000000000000000E+000	5.00901e-07
2	1	0	1	0	0	161.769	0.367793	0.367414	0.00463343	9	2.61909e-05	13	0	1.7755	1.70239e-06
2	1	0	1	0	0	163.567	0.385772	0.385334	0.00245719	9	3.2835e-05	13	0	3.5733	9.4684e-07
2	1	0	1	0	0	165.365	0.40375	0.403317	0.00387732	9	3.92159e-05	13	0	5.3712	1.56379e-06
2	1	0	1	0	0	167.163	0.421729	0.421269	0.0043126	9	4.53123e-05	13	0	7.1691	1.81676e-06
2	1	0	1	0	0	168.961	0.439708	0.439296	0.00309945	9	5.11834e-05	13	0	8.9669	1.36158e-06
2	0	0	1	0	0	170.664	0.443253	0.442778	-0.00370851	9	5.2898e-05	13	0	0.6493	-1.64204e-06
2	0	0	1	0	0	172.462	0.425275	0.424784	-0.00402966	9	4.79223e-05	13	0	2.4471	-1.71173e-06
2	0	0	1	0	0	174.26	0.407296	0.406836	-0.00266066	9	4.23773e-05	13	0	4.245	-1.08245e-06
2	0	0	1	0	0	176.058	0.389317	0.388861	-0.0025553	9	3.63204e-05	13	0	6.0429	-9.93657e-07
2	1	0	1	0	0	177.856	0.371339	0.370835	-0.00450444	9	2.97293e-05	13	0	7.8407	-1.6704e-06
2	0	0	1	0	0	179.654	0.35336	0.352916	-0.00493934	9	2.25172e-05	13	0	9.6386	-1.74317e-06
2	1	0	1	0	1	181.318	0.363298	0.36289	0.00270699	10	2.58511e-05	13	0	1.2985	9.8234e-07
2	1	0	1	0	1	183.116	0.381277	0.380826	0.00295543	10	3.25309e-05	13	0	3.0964	1.1255e-06
2	1	0	1	0	1	184.914	0.399256	0.398847	0.00352099	10	3.89521e-05	13	0	4.8942	1.40433e-06
2	1	0	1	0	1	186.712	0.417233	0.416794	0.0025725	10	4.50919e-05	13	0	6.6921	1.0722e-06
2	1	0	1	0	1	188.51	0.435213	0.43473	0.00364682	10	5.09867e-05	13	0	8.49	1.58538e-06
2	1	0	1	0	1	190.214	0.447748	0.447262	-0.00109814	10	5.52263e-05	13	0	0.1998	-4.91154e-07
2	1	0	1	0	1	192.011	0.429769	0.42928	-0.00160213	10	5.04646e-05	13	0	1.9977	-6.87764e-07
2	1	0	1	0	1	193.809	0.411791	0.411252	-0.00277659	10	4.50379e-05	13	0	3.7955	-1.14188e-06
2	0	0	1	0	1	195.607	0.393812	0.393327	-0.00467508	10	3.91306e-05	13	0	5.5934	-1.83884e-06
2	0	0	1	0	1	197.405	0.375833	0.375389	-0.00371874	10	3.27e-05	13	0	7.3913	-1.39597e-06
2	0	0	1	0	1	199.203	0.357855	0.357454	-0.00286214	10	2.56702e-05	13	0	9.1891	-1.02308e-06
2	1	0	1	0	1	199.986	0.349989	0.349514	0.000572115	10	2.23784e-05	13	0	9.9722	1.99962e-07