File: ACS_Catal_2026/Figures_Na_K/main_figures/data/EC/20251112_2-148_alpha_reproducibility/20251112_2-148_002_alpha_reproducibility_2_Na2_02_PEIS_C02.mpt
EC-Lab ASCII FILE
Nb header lines : 63

Potentio Electrochemical Impedance Spectroscopy

Run on channel : 2 (SN 69290)
User :
CE vs. WE compliance from -10 V to 10 V
Electrode connection : standard
Potential control : Ewe
Ewe ctrl range : min = -1.00 V, max = 1.00 V
Safety Limits :
	Do not start on E overload
Acquisition started on : 11/12/2025 15:15:43.590
Loaded Setting File :  C:\Users\User\Documents\EC-Lab\Data\Yatsuzuka\20251112_2-148_alpha_reproducibility\20251112_2-148_002_alpha_reproducibility_2_K1.mps
Saved on :
	File : 20251112_2-148_002_alpha_reproducibility_2_Na2_02_PEIS_C02.mpr
	Directory : C:\Users\User\Documents\EC-Lab\Data\Yatsuzuka\20251112_2-148_alpha_reproducibility\
	Host : 192.109.209.127
Device : SP-150e (SN .003883)
Address : 192.109.209.128
EC-LAB for windows v11.52 (software)
Internet server v11.52 (firmware)
Command interpretor v11.50 (firmware)
Electrode material :
Initial state :
Electrolyte :
Comments :
Electrode surface area : 0.001 cm2
Characteristic mass : 0.001 g
Equivalent Weight : 0.000 g/eq.
Density : 0.000 g/cm3
Volume (V) : 0.001 cm3
Cycle Definition : Charge/Discharge alternance
Mode                Single sine
E (V)               0.4500
vs.                 Ref
tE (h:m:s)          0:00:0.0000
record              0
dI                  0.000
unit dI             mA
dt (s)              0.000
fi                  500.000
unit fi             kHz
ff                  1.000
unit ff             Hz
Nd                  6
Points              per decade
spacing             Logarithmic
Va (mV)             10.0
pw                  0.10
Na                  2
corr                0
E range min (V)     -1.000
E range max (V)     1.000
I Range             Auto
Bandwidth           5
nc cycles           0
goto Ns'            0
nr cycles           0
inc. cycle          0

freq/Hz	Re(Z)/Ohm	-Im(Z)/Ohm	|Z|/Ohm	Phase(Z)/deg	time/s	<Ewe>/V	<I>/mA	Cs/uF	Cp/uF	cycle number	I Range	|Ewe|/V	|I|/A	Ns	(Q-Qo)/mA.h	Re(Y)/Ohm-1	Im(Y)/Ohm-1	|Y|/Ohm-1	Phase(Y)/deg	Re(C)/nF	Im(C)/nF	|C|/nF	Phase(C)/deg	Re(M)	Im(M)	|M|	Phase(M)/deg	Re(Permittivity)	Im(Permittivity)	|Permittivity|	Phase(Permittivity)/deg	Re(Resistivity)/Ohm.cm	Im(Resistivity)/Ohm.cm	|Resistivity|/Ohm.cm	Phase(Resistivity)/deg	Re(Conductivity)/mS/cm	Im(Conductivity)/mS/cm	|Conductivity|/mS/cm	Phase(Conductivity)/deg	Tan(Delta)	Loss Angle(Delta)/deg	dq/mA.h	Pwe/W	Rwe/Ohm
500019	14.7577	-3.80955	15.2415	14.4743	201.614	0.449795	0.0219738	-0.0835527	-0.00521979	1	10	0.00461309	0.000302666	0	3.28822e-05	0.0635279	-0.0163991	0.0656104	-14.4743	-5.21979	20.2208	20.8837	-104.474	0.0000000E+000	0.0000000E+000	0.0000000E+000	104.474	0.0000000E+000	0.0000000E+000	0.0000000E+000	-104.474	0.0000000E+000	0.0000000E+000	0.0000000E+000	14.4743	0.0000000E+000	0.0000000E+000	0.0000000E+000	-14.4743	3.87387	75.5257	3.28822e-05	9.88367e-06	20469.6
231063	8.69492	-1.01295	8.75373	6.64496	202.459	0.449561	0.0209185	-0.679989	-0.00910528	1	10	0.0100988	0.00115366	0	3.71735e-05	0.11347	-0.0132191	0.114237	-6.64496	-9.10529	78.1574	78.686	-96.645	0.0000000E+000	0.0000000E+000	0.0000000E+000	96.645	0.0000000E+000	0.0000000E+000	0.0000000E+000	-96.645	0.0000000E+000	0.0000000E+000	0.0000000E+000	6.64496	0.0000000E+000	0.0000000E+000	0.0000000E+000	-6.64496	8.58374	83.355	1.73029e-06	9.40412e-06	21491.1
106786	8.12614	-0.162741	8.12777	1.1473	203.303	0.449545	0.0204132	-9.15815	-0.00367162	1	10	0.0108312	0.00133261	0	3.89359e-05	0.12301	-0.00246351	0.123035	-1.1473	-3.67163	183.335	183.372	-91.1473	0.0000000E+000	0.0000000E+000	0.0000000E+000	91.1473	0.0000000E+000	0.0000000E+000	0.0000000E+000	-91.1473	0.0000000E+000	0.0000000E+000	0.0000000E+000	1.1473	0.0000000E+000	0.0000000E+000	0.0000000E+000	-1.1473	49.933	88.8527	2.93276e-06	9.17664e-06	22022.3
49352.4	8.12792	-0.000438075	8.12792	0.0030881	204.147	0.449558	0.0200515	-7361.46	-2.13846e-05	1	10	0.0105748	0.00130105	0	4.59284e-05	0.123033	-6.63115e-06	0.123033	-0.0030881	-0.0213971	396.764	396.764	-90.0031	0.0000000E+000	0.0000000E+000	0.0000000E+000	90.0031	0.0000000E+000	0.0000000E+000	0.0000000E+000	-90.0031	0.0000000E+000	0.0000000E+000	0.0000000E+000	0.0030881	0.0000000E+000	0.0000000E+000	0.0000000E+000	-0.0030881	18553.7	89.9969	2.34832e-06	9.0143e-06	22420.2
22806.6	8.1565	0.0280521	8.15654	-0.197053	204.991	0.449556	0.0200384	248.768	0.00294248	1	10	0.0105196	0.00128971	0	5.33232e-05	0.1226	0.000421651	0.122601	0.197053	2.94247	855.562	855.567	-89.8029	0.0000000E+000	0.0000000E+000	0.0000000E+000	89.8029	0.0000000E+000	0.0000000E+000	0.0000000E+000	-89.8029	0.0000000E+000	0.0000000E+000	0.0000000E+000	-0.197053	0.0000000E+000	0.0000000E+000	0.0000000E+000	0.197053	290.763	89.8029	3.0177e-06	9.00838e-06	22434.7
10540.4	8.17512	0.0390296	8.17521	-0.273539	205.836	0.449555	0.0193877	386.875	0.00881779	1	10	0.0103582	0.00126703	0	5.57128e-05	0.12232	0.000583977	0.122321	0.273539	8.81772	1846.97	1846.99	-89.7265	0.0000000E+000	0.0000000E+000	0.0000000E+000	89.7265	0.0000000E+000	0.0000000E+000	0.0000000E+000	-89.7265	0.0000000E+000	0.0000000E+000	0.0000000E+000	-0.273539	0.0000000E+000	0.0000000E+000	0.0000000E+000	0.273539	209.46	89.7265	1.92072e-06	8.71583e-06	23187.7
4871.56	8.19097	0.0417507	8.19108	-0.292043	207.05	0.449545	0.0183902	782.507	0.0203298	1	10	0.0101622	0.00124064	0	6.32485e-05	0.122082	0.000622274	0.122084	0.292043	20.33	3988.46	3988.51	-89.708	0.0000000E+000	0.0000000E+000	0.0000000E+000	89.708	0.0000000E+000	0.0000000E+000	0.0000000E+000	-89.708	0.0000000E+000	0.0000000E+000	0.0000000E+000	-0.292043	0.0000000E+000	0.0000000E+000	0.0000000E+000	0.292043	196.188	89.708	4.03747e-06	8.26722e-06	24444.9
2250.72	8.19746	0.0605231	8.19768	-0.423016	208.201	0.449544	0.0181478	1168.36	0.063685	1	10	0.0101094	0.0012332	0	6.8255e-05	0.121982	0.000900614	0.121986	0.423016	63.6856	8625.72	8625.96	-89.577	0.0000000E+000	0.0000000E+000	0.0000000E+000	89.577	0.0000000E+000	0.0000000E+000	0.0000000E+000	-89.577	0.0000000E+000	0.0000000E+000	0.0000000E+000	-0.423016	0.0000000E+000	0.0000000E+000	0.0000000E+000	0.423016	135.444	89.577	1.6041e-06	8.15823e-06	24771.3
1040.33	8.21745	0.107078	8.21815	-0.746556	209.131	0.449552	0.0178625	1428.72	0.24255	1	10	0.0104047	0.00126606	0	7.30107e-05	0.121672	0.00158545	0.121682	0.746556	242.551	18613.9	18615.5	-89.2534	0.0000000E+000	0.0000000E+000	0.0000000E+000	89.2534	0.0000000E+000	0.0000000E+000	0.0000000E+000	-89.2534	0.0000000E+000	0.0000000E+000	0.0000000E+000	-0.746556	0.0000000E+000	0.0000000E+000	0.0000000E+000	0.746556	76.7425	89.2534	1.38549e-06	8.03012e-06	25167.3
480.769	8.22924	0.20113	8.23169	-1.40008	210.061	0.449539	0.0167214	1645.91	0.982611	1	10	0.0104781	0.0012729	0	7.86142e-05	0.121445	0.00296823	0.121482	1.40008	982.609	40203.6	40215.6	-88.5999	0.0000000E+000	0.0000000E+000	0.0000000E+000	88.5999	0.0000000E+000	0.0000000E+000	0.0000000E+000	-88.5999	0.0000000E+000	0.0000000E+000	0.0000000E+000	-1.40008	0.0000000E+000	0.0000000E+000	0.0000000E+000	1.40008	40.9151	88.5999	2.58654e-06	7.51694e-06	26884
222.061	8.2548	0.414691	8.26521	-2.87591	210.985	0.449542	0.0178569	1728.32	4.35076	1	10	0.0105038	0.00127085	0	8.25967e-05	0.120837	0.00607039	0.120989	2.87591	4350.76	86605.8	86715	-87.1241	0.0000000E+000	0.0000000E+000	0.0000000E+000	87.1241	0.0000000E+000	0.0000000E+000	0.0000000E+000	-87.1241	0.0000000E+000	0.0000000E+000	0.0000000E+000	-2.87591	0.0000000E+000	0.0000000E+000	0.0000000E+000	2.87591	19.9059	87.1241	9.68992e-07	8.02744e-06	25174.7
102.667	8.29863	0.828189	8.33985	-5.69915	211.922	0.449551	0.0177898	1871.8	18.4587	1	10	0.010517	0.00126105	0	8.71738e-05	0.119314	0.0119073	0.119906	5.69915	18458.7	184960	185879	-84.3008	0.0000000E+000	0.0000000E+000	0.0000000E+000	84.3008	0.0000000E+000	0.0000000E+000	0.0000000E+000	-84.3008	0.0000000E+000	0.0000000E+000	0.0000000E+000	-5.69915	0.0000000E+000	0.0000000E+000	0.0000000E+000	5.69915	10.0202	84.3008	2.00515e-06	7.99742e-06	25270.2
47.4443	8.37537	1.70189	8.54654	-11.4862	212.833	0.449533	0.0165518	1971.08	78.1605	1	10	0.0105259	0.0012316	0	9.04872e-05	0.114663	0.0232998	0.117006	11.4862	78160.6	384645	392505	-78.5138	0.0000000E+000	0.0000000E+000	0.0000000E+000	78.5138	0.0000000E+000	0.0000000E+000	0.0000000E+000	-78.5138	0.0000000E+000	0.0000000E+000	0.0000000E+000	-11.4862	0.0000000E+000	0.0000000E+000	0.0000000E+000	11.4862	4.92121	78.5138	1.79257e-06	7.44056e-06	27159.2
21.9144	8.50051	3.52734	9.2033	-22.5363	213.701	0.449522	0.016658	2058.93	302.448	1	10	0.0105518	0.00114653	0	9.48857e-05	0.100359	0.0416448	0.108657	22.5363	302448	728865	789125	-67.4637	0.0000000E+000	0.0000000E+000	0.0000000E+000	67.4637	0.0000000E+000	0.0000000E+000	0.0000000E+000	-67.4637	0.0000000E+000	0.0000000E+000	0.0000000E+000	-22.5363	0.0000000E+000	0.0000000E+000	0.0000000E+000	22.5363	2.40989	67.4637	1.48799e-06	7.48816e-06	26985.3
10.1329	8.72838	7.30057	11.3791	-39.9097	214.628	0.449541	0.0174467	2151.43	885.582	1	10	0.010569	0.000928816	0	9.27499e-05	0.0674095	0.0563825	0.0878807	39.9097	885582	1.05878e+06	1.38031e+06	-50.0903	0.0000000E+000	0.0000000E+000	0.0000000E+000	50.0903	0.0000000E+000	0.0000000E+000	0.0000000E+000	-50.0903	0.0000000E+000	0.0000000E+000	0.0000000E+000	-39.9097	0.0000000E+000	0.0000000E+000	0.0000000E+000	39.9097	1.19557	50.0903	-2.99066e-06	7.84301e-06	25766.5
4.68375	9.22604	15.603	18.1266	-59.4042	215.678	0.449553	0.000722361	2177.81	1613.62	1	11	0.0105792	0.000583628	0	9.45186e-05	0.0280792	0.0474872	0.0551677	59.4042	1.61362e+06	954137	1.87461e+06	-30.5958	0.0000000E+000	0.0000000E+000	0.0000000E+000	30.5958	0.0000000E+000	0.0000000E+000	0.0000000E+000	-30.5958	0.0000000E+000	0.0000000E+000	0.0000000E+000	-59.4042	0.0000000E+000	0.0000000E+000	0.0000000E+000	59.4042	0.5913	30.5958	2.2609e-06	3.2474e-07	622339
2.16533	9.8622	32.8907	34.3374	-73.3088	217.394	0.449564	0.00211636	2234.72	2050.38	1	11	0.0105794	0.000308102	0	9.74949e-05	0.00836446	0.0278957	0.0291227	73.3088	2.05038e+06	614801	2.14057e+06	-16.6912	0.0000000E+000	0.0000000E+000	0.0000000E+000	16.6912	0.0000000E+000	0.0000000E+000	0.0000000E+000	-16.6912	0.0000000E+000	0.0000000E+000	0.0000000E+000	-73.3088	0.0000000E+000	0.0000000E+000	0.0000000E+000	73.3088	0.299848	16.6913	-3.4432e-06	9.51438e-07	212423
1.00006	11.6783	69.7151	70.6865	-80.4904	221.734	0.449567	0.000287428	2282.79	2220.48	1	12	0.0105811	0.00014969	0	9.35111e-05	0.00233725	0.0139526	0.014147	80.4904	2.22048e+06	371961	2.25142e+06	-9.50956	0.0000000E+000	0.0000000E+000	0.0000000E+000	9.50956	0.0000000E+000	0.0000000E+000	0.0000000E+000	-9.50956	0.0000000E+000	0.0000000E+000	0.0000000E+000	-80.4904	0.0000000E+000	0.0000000E+000	0.0000000E+000	80.4904	0.167514	9.50955	1.42704e-06	1.29218e-07	1.5641e+06