File: ACS_Catal_2026/Figures_Na_K/main_figures/data/EC/20251112_2-148_alpha_reproducibility/20251112_2-148_004_Na_first_2_Na2_02_PEIS_C02.mpt
EC-Lab ASCII FILE
Nb header lines : 63

Potentio Electrochemical Impedance Spectroscopy

Run on channel : 2 (SN 69290)
User :
CE vs. WE compliance from -10 V to 10 V
Electrode connection : standard
Potential control : Ewe
Ewe ctrl range : min = -1.00 V, max = 1.00 V
Safety Limits :
	Do not start on E overload
Acquisition started on : 11/12/2025 17:10:29.402
Loaded Setting File :  C:\Users\User\Documents\EC-Lab\Data\Yatsuzuka\20251112_2-148_alpha_reproducibility\20251112_2-148_002_alpha_reproducibility_2_K1.mps
Saved on :
	File : 20251112_2-148_004_Na_first_2_Na2_02_PEIS_C02.mpr
	Directory : C:\Users\User\Documents\EC-Lab\Data\Yatsuzuka\20251112_2-148_alpha_reproducibility\
	Host : 192.109.209.127
Device : SP-150e (SN .003883)
Address : 192.109.209.128
EC-Lab for windows v11.52 (software)
Internet server v11.52 (firmware)
Command interpretor v11.50 (firmware)
Electrode material :
Initial state :
Electrolyte :
Comments :
Electrode surface area : 0.001 cm2
Characteristic mass : 0.001 g
Equivalent Weight : 0.000 g/eq.
Density : 0.000 g/cm3
Volume (V) : 0.001 cm3
Cycle Definition : Charge/Discharge alternance
Mode                Single sine
E (V)               0.4500
vs.                 Ref
tE (h:m:s)          0:00:0.0000
record              0
dI                  0.000
unit dI             mA
dt (s)              0.000
fi                  500.000
unit fi             kHz
ff                  1.000
unit ff             Hz
Nd                  6
Points              per decade
spacing             Logarithmic
Va (mV)             10.0
pw                  0.10
Na                  2
corr                0
E range min (V)     -1.000
E range max (V)     1.000
I Range             Auto
Bandwidth           5
nc cycles           0
goto Ns'            0
nr cycles           0
inc. cycle          0

freq/Hz	Re(Z)/Ohm	-Im(Z)/Ohm	|Z|/Ohm	Phase(Z)/deg	time/s	<Ewe>/V	<I>/mA	Cs/uF	Cp/uF	cycle number	I Range	|Ewe|/V	|I|/A	Ns	(Q-Qo)/mA.h	Re(Y)/Ohm-1	Im(Y)/Ohm-1	|Y|/Ohm-1	Phase(Y)/deg	Re(C)/nF	Im(C)/nF	|C|/nF	Phase(C)/deg	Re(M)	Im(M)	|M|	Phase(M)/deg	Re(Permittivity)	Im(Permittivity)	|Permittivity|	Phase(Permittivity)/deg	Re(Resistivity)/Ohm.cm	Im(Resistivity)/Ohm.cm	|Resistivity|/Ohm.cm	Phase(Resistivity)/deg	Re(Conductivity)/mS/cm	Im(Conductivity)/mS/cm	|Conductivity|/mS/cm	Phase(Conductivity)/deg	Tan(Delta)	Loss Angle(Delta)/deg	dq/mA.h
500019	13.4327	-4.00959	14.0184	16.62	201.944	0.449805	0.0194119	-0.0793842	-0.00649437	1	10	0.00467093	0.0003332	0	3.27422e-05	0.0683547	-0.0204034	0.0713348	-16.62	-6.49437	21.7572	22.7057	-106.62	0.0000000E+000	0.0000000E+000	0.0000000E+000	106.62	0.0000000E+000	0.0000000E+000	0.0000000E+000	-106.62	0.0000000E+000	0.0000000E+000	0.0000000E+000	16.62	0.0000000E+000	0.0000000E+000	0.0000000E+000	-16.62	3.35016	73.38	3.27422e-05
231063	7.54619	-1.26377	7.65129	9.50717	202.788	0.449568	0.019287	-0.545032	-0.0148693	1	10	0.0101245	0.00132324	0	3.89779e-05	0.128902	-0.0215874	0.130697	-9.50717	-14.8693	88.7871	90.0235	-99.5072	0.0000000E+000	0.0000000E+000	0.0000000E+000	99.5072	0.0000000E+000	0.0000000E+000	0.0000000E+000	-99.5072	0.0000000E+000	0.0000000E+000	0.0000000E+000	9.50717	0.0000000E+000	0.0000000E+000	0.0000000E+000	-9.50717	5.97117	80.4928	4.63451e-06
106786	6.9395	-0.355904	6.94862	2.93594	203.633	0.449542	0.020719	-4.18766	-0.010986	1	10	0.0108884	0.00156699	0	4.08532e-05	0.143724	-0.00737115	0.143913	-2.93594	-10.986	214.208	214.489	-92.9359	0.0000000E+000	0.0000000E+000	0.0000000E+000	92.9359	0.0000000E+000	0.0000000E+000	0.0000000E+000	-92.9359	0.0000000E+000	0.0000000E+000	0.0000000E+000	2.93594	0.0000000E+000	0.0000000E+000	0.0000000E+000	-2.93594	19.4982	87.0641	1.7962e-06
49352.4	6.89044	-0.126964	6.89161	1.05562	204.477	0.449544	0.0164996	-25.3999	-0.00862088	1	10	0.0105971	0.00153769	0	4.62819e-05	0.145079	-0.00267325	0.145104	-1.05562	-8.62087	467.862	467.941	-91.0556	0.0000000E+000	0.0000000E+000	0.0000000E+000	91.0556	0.0000000E+000	0.0000000E+000	0.0000000E+000	-91.0556	0.0000000E+000	0.0000000E+000	0.0000000E+000	1.05562	0.0000000E+000	0.0000000E+000	0.0000000E+000	-1.05562	54.2708	88.9444	3.84735e-06
22806.6	6.87549	-0.0485618	6.87567	0.404675	205.321	0.449561	0.0221546	-143.703	-0.00716846	1	10	0.0105001	0.00152714	0	4.68334e-05	0.145437	-0.00102722	0.14544	-0.404675	-7.16852	1014.93	1014.95	-90.4047	0.0000000E+000	0.0000000E+000	0.0000000E+000	90.4047	0.0000000E+000	0.0000000E+000	0.0000000E+000	-90.4047	0.0000000E+000	0.0000000E+000	0.0000000E+000	0.404675	0.0000000E+000	0.0000000E+000	0.0000000E+000	-0.404675	141.582	89.5953	1.01793e-06
10540.4	6.87505	0.000388886	6.87505	-0.00324092	206.165	0.449557	0.0192348	38827.7	0.000124232	1	10	0.0103617	0.00150715	0	4.76383e-05	0.145453	8.22755e-06	0.145453	0.00324092	0.124292	2196.28	2196.28	-89.9968	0.0000000E+000	0.0000000E+000	0.0000000E+000	89.9968	0.0000000E+000	0.0000000E+000	0.0000000E+000	-89.9968	0.0000000E+000	0.0000000E+000	0.0000000E+000	-0.00324092	0.0000000E+000	0.0000000E+000	0.0000000E+000	0.00324092	17678.8	89.9968	1.54008e-06
4871.56	6.87953	0.0236607	6.87957	-0.197056	207.377	0.449546	0.0197084	1380.78	0.0163327	1	10	0.0101526	0.00147576	0	4.99317e-05	0.145357	0.000499926	0.145358	0.197056	16.333	4748.85	4748.88	-89.8029	0.0000000E+000	0.0000000E+000	0.0000000E+000	89.8029	0.0000000E+000	0.0000000E+000	0.0000000E+000	-89.8029	0.0000000E+000	0.0000000E+000	0.0000000E+000	-0.197056	0.0000000E+000	0.0000000E+000	0.0000000E+000	0.197056	290.758	89.8029	1.01108e-06
2250.72	6.88364	0.0514651	6.88383	-0.42836	208.527	0.449548	0.0194157	1374	0.0767982	1	10	0.0101042	0.00146781	0	5.70991e-05	0.145264	0.00108606	0.145268	0.42836	76.7981	10272	10272.3	-89.5716	0.0000000E+000	0.0000000E+000	0.0000000E+000	89.5716	0.0000000E+000	0.0000000E+000	0.0000000E+000	-89.5716	0.0000000E+000	0.0000000E+000	0.0000000E+000	-0.42836	0.0000000E+000	0.0000000E+000	0.0000000E+000	0.42836	133.754	89.5716	5.25899e-06
1040.33	6.89941	0.105186	6.90021	-0.873441	209.457	0.449552	0.0166636	1454.43	0.337971	1	10	0.0103496	0.0014999	0	6.23267e-05	0.144906	0.00220918	0.144923	0.873441	337.972	22168.4	22171	-89.1266	0.0000000E+000	0.0000000E+000	0.0000000E+000	89.1266	0.0000000E+000	0.0000000E+000	0.0000000E+000	-89.1266	0.0000000E+000	0.0000000E+000	0.0000000E+000	-0.873441	0.0000000E+000	0.0000000E+000	0.0000000E+000	0.873441	65.5927	89.1266	3.62964e-06
480.769	6.91133	0.204786	6.91436	-1.6972	210.387	0.449546	0.0192982	1616.53	1.41801	1	10	0.0104074	0.00150519	0	6.54814e-05	0.144563	0.00428346	0.144626	1.6972	1418	47856.5	47877.5	-88.3028	0.0000000E+000	0.0000000E+000	0.0000000E+000	88.3028	0.0000000E+000	0.0000000E+000	0.0000000E+000	-88.3028	0.0000000E+000	0.0000000E+000	0.0000000E+000	-1.6972	0.0000000E+000	0.0000000E+000	0.0000000E+000	1.6972	33.7491	88.3028	1.58655e-06
222.061	6.93623	0.415818	6.94868	-3.43071	211.312	0.449549	0.0150434	1723.63	6.1723	1	10	0.0104259	0.00150042	0	6.95105e-05	0.143654	0.00861189	0.143912	3.43071	6172.29	102960	103144	-86.5693	0.0000000E+000	0.0000000E+000	0.0000000E+000	86.5693	0.0000000E+000	0.0000000E+000	0.0000000E+000	-86.5693	0.0000000E+000	0.0000000E+000	0.0000000E+000	-3.43071	0.0000000E+000	0.0000000E+000	0.0000000E+000	3.43071	16.6809	86.5693	1.81866e-06
102.667	6.9757	0.853506	7.02772	-6.9757	212.248	0.449545	0.0198706	1816.27	26.7895	1	10	0.0104288	0.00148395	0	7.56471e-05	0.14124	0.0172813	0.142294	6.9757	26789.5	218951	220584	-83.0243	0.0000000E+000	0.0000000E+000	0.0000000E+000	83.0243	0.0000000E+000	0.0000000E+000	0.0000000E+000	-83.0243	0.0000000E+000	0.0000000E+000	0.0000000E+000	-6.9757	0.0000000E+000	0.0000000E+000	0.0000000E+000	6.9757	8.173	83.0243	3.63925e-06
47.4443	7.05788	1.75775	7.27347	-13.9849	213.159	0.44954	0.0147562	1908.44	111.458	1	10	0.0104369	0.00143493	0	8.20866e-05	0.133411	0.0332257	0.137486	13.9849	111458	447535	461205	-76.0151	0.0000000E+000	0.0000000E+000	0.0000000E+000	76.0151	0.0000000E+000	0.0000000E+000	0.0000000E+000	-76.0151	0.0000000E+000	0.0000000E+000	0.0000000E+000	-13.9849	0.0000000E+000	0.0000000E+000	0.0000000E+000	13.9849	4.01529	76.0151	3.2968e-06
21.9144	7.18771	3.61899	8.04738	-26.7251	214.027	0.449533	0.0161192	2006.79	405.852	1	10	0.0104468	0.00129816	0	8.85196e-05	0.11099	0.0558828	0.124264	26.7251	405852	806068	902476	-63.2749	0.0000000E+000	0.0000000E+000	0.0000000E+000	63.2749	0.0000000E+000	0.0000000E+000	0.0000000E+000	-63.2749	0.0000000E+000	0.0000000E+000	0.0000000E+000	-26.7251	0.0000000E+000	0.0000000E+000	0.0000000E+000	26.7251	1.98611	63.2749	5.31847e-06
10.1329	7.38482	7.60813	10.6028	-45.8533	214.954	0.44954	0.0152354	2064.46	1062.97	1	10	0.0104506	0.000985648	0	9.18485e-05	0.0656901	0.0676764	0.0943148	45.8533	1.06297e+06	1.03177e+06	1.48137e+06	-44.1467	0.0000000E+000	0.0000000E+000	0.0000000E+000	44.1467	0.0000000E+000	0.0000000E+000	0.0000000E+000	-44.1467	0.0000000E+000	0.0000000E+000	0.0000000E+000	-45.8533	0.0000000E+000	0.0000000E+000	0.0000000E+000	45.8533	0.970649	44.1467	-6.30758e-08
4.68375	7.73472	16.0778	17.8416	-64.3088	216.004	0.449559	0.000630163	2113.48	1716.27	1	11	0.0104581	0.000586165	0	0.000100946	0.0242983	0.050508	0.0560488	64.3088	1.71627e+06	825662	1.90455e+06	-25.6912	0.0000000E+000	0.0000000E+000	0.0000000E+000	25.6912	0.0000000E+000	0.0000000E+000	0.0000000E+000	-25.6912	0.0000000E+000	0.0000000E+000	0.0000000E+000	-64.3088	0.0000000E+000	0.0000000E+000	0.0000000E+000	64.3088	0.481079	25.6912	7.37945e-06
2.16533	8.6684	33.9215	35.0116	-75.6653	217.718	0.449567	0.00135968	2166.81	2033.99	1	11	0.010456	0.000298643	0	9.13606e-05	0.00707156	0.0276727	0.028562	75.6653	2.03399e+06	519771	2.09935e+06	-14.3347	0.0000000E+000	0.0000000E+000	0.0000000E+000	14.3347	0.0000000E+000	0.0000000E+000	0.0000000E+000	-14.3347	0.0000000E+000	0.0000000E+000	0.0000000E+000	-75.6653	0.0000000E+000	0.0000000E+000	0.0000000E+000	75.6653	0.255543	14.3347	-3.63579e-06
1.00006	10.098	72.1908	72.8936	-82.0372	222.058	0.449566	0.000612343	2204.5	2162.2	1	12	0.0104584	0.000143474	0	0.000101129	0.00190044	0.0135864	0.0137186	82.0372	2.1622e+06	302446	2.18325e+06	-7.9628	0.0000000E+000	0.0000000E+000	0.0000000E+000	7.9628	0.0000000E+000	0.0000000E+000	0.0000000E+000	-7.9628	0.0000000E+000	0.0000000E+000	0.0000000E+000	-82.0372	0.0000000E+000	0.0000000E+000	0.0000000E+000	82.0372	0.139879	7.9628	4.9733e-06