File: ACS_Catal_2026/Figures_Na_K/main_figures/data/EC/20251112_2-148_alpha_reproducibility/20251112_2-148_002_alpha_reproducibility_2_Na2_01_CVA_C02.mpt
EC-Lab ASCII FILE
Nb header lines : 66

Cyclic Voltammetry Advanced

Run on channel : 2 (SN 69290)
User :
CE vs. WE compliance from -10 V to 10 V
Electrode connection : standard
Potential control : Ewe
Ewe ctrl range : min = -1.00 V, max = 1.00 V
Safety Limits :
	Do not start on E overload
Acquisition started on : 11/12/2025 15:15:43.590
Loaded Setting File :  C:\Users\User\Documents\EC-Lab\Data\Yatsuzuka\20251112_2-148_alpha_reproducibility\20251112_2-148_002_alpha_reproducibility_2_K1.mps
Saved on :
	File : 20251112_2-148_002_alpha_reproducibility_2_Na2_01_CVA_C02.mpr
	Directory : C:\Users\User\Documents\EC-Lab\Data\Yatsuzuka\20251112_2-148_alpha_reproducibility\
	Host : 192.109.209.127
Device : SP-150e (SN .003883)
Address : 192.109.209.128
EC-LAB for windows v11.52 (software)
Internet server v11.52 (firmware)
Command interpretor v11.50 (firmware)
Electrode material :
Initial state :
Electrolyte :
Comments :
Electrode surface area : 0.001 cm2
Characteristic mass : 0.001 g
Equivalent Weight : 0.000 g/eq.
Density : 0.000 g/cm3
Volume (V) : 0.001 cm3
Cycle Definition : Charge/Discharge alternance
Ei (V)              0.350
vs.                 Ref
ti (h:m:s)          0:00:10.0000
dti (s)             0.0000
dE/dt               10.000
dE/dt unit          mV/s
E1 (V)              0.450
vs.                 Ref
t1 (h:m:s)          0:00:0.0000
dt1 (s)             0.1000
Step percent        50
N                   10
E range min (V)     -1.000
E range max (V)     1.000
I Range             Auto
I Range min         Unset
I Range max         Unset
I Range init        Unset
Bandwidth           5
E2 (V)              0.350
vs.                 Ref
t2 (h:m:s)          0:00:0.0000
dt2 (s)             0.1000
nc cycles           9
nr                  1
Reverse Scan        0
Ef (V)              0.000
vs.                 Eoc
tf (h:m:s)          0:00:0.0000
dtf (s)             0.1000

mode	ox/red	error	control changes	Ns changes	counter inc.	time/s	control/V	Ewe/V	<I>/mA	cycle number	(Q-Qo)/C	I Range	Ns	step time/s	Pwe/W	Rwe/Ohm
2	1	0	1	0	0	0.000000000000000E+000	0.349989	0.349534	0.00641367	1	0.0000000E+000	13	0	0.000000000000000E+000	2.24179e-06	54498.2
2	1	0	1	0	0	1.8753	0.368742	0.368299	0.0387615	1	6.01951e-05	13	0	1.8478	1.42758e-05	9501.67
2	1	0	1	0	0	3.7731	0.387719	0.387314	0.0366059	1	0.000120119	13	0	3.7456	1.4178e-05	10580.7
2	1	0	1	0	0	5.6709	0.406697	0.406302	0.0291785	1	0.000176745	13	0	5.6434	1.18553e-05	13924.7
2	1	0	1	0	0	7.5686	0.425673	0.42522	0.021652	1	0.000230248	13	0	7.5411	9.20686e-06	19638.8
2	1	0	1	0	0	9.4664	0.444653	0.444138	0.021787	1	0.000281347	13	0	9.4389	9.67644e-06	20385.5
2	0	0	1	0	0	11.3399	0.436611	0.436136	-0.0301323	1	0.000265822	13	0	1.2486	-1.31418e-05	14474.1
2	0	0	1	0	0	13.2376	0.417634	0.417106	-0.0307587	1	0.000217329	13	0	3.1463	-1.28296e-05	13560.6
2	0	0	1	0	0	15.1353	0.398656	0.398149	-0.0273376	1	0.000164307	13	0	5.044	-1.08844e-05	14564.1
2	0	0	1	0	0	17.0331	0.379679	0.379176	-0.0255575	1	0.000106403	13	0	6.9418	-9.69078e-06	14836.2
2	0	0	1	0	0	18.9309	0.360701	0.36019	-0.0328394	1	4.28374e-05	13	0	8.8396	-1.18284e-05	10968.2
2	1	0	1	0	1	20.7903	0.357905	0.357459	0.0379092	2	2.62353e-05	13	0	0.6942	1.3551e-05	9429.34
2	1	0	1	0	1	22.688	0.376882	0.376456	0.0304718	2	8.6158e-05	13	0	2.5919	1.14713e-05	12354.2
2	1	0	1	0	1	24.5857	0.39586	0.395414	0.0236224	2	0.000143798	13	0	4.4896	9.34063e-06	16739
2	1	0	1	0	1	26.4835	0.414837	0.414391	0.0285902	2	0.000198453	13	0	6.3874	1.18475e-05	14494.2
2	1	0	1	0	1	28.3813	0.433815	0.433315	0.0329577	2	0.000250647	13	0	8.2852	1.42811e-05	13147.6
2	0	0	1	0	1	30.2248	0.447748	0.447254	-0.0229793	2	0.000289823	13	0	0.1499	-1.02776e-05	19463.4
2	0	0	1	0	1	32.1225	0.428771	0.428282	-0.0208642	2	0.000244882	13	0	2.0476	-8.93576e-06	20527.1
2	0	0	1	0	1	34.0203	0.409793	0.409307	-0.0225288	2	0.000194548	13	0	3.9454	-9.22118e-06	18168.2
2	0	0	1	0	1	35.9181	0.390816	0.390389	-0.0319628	2	0.000139791	13	0	5.8432	-1.24779e-05	12213.9
2	0	0	1	0	1	37.8158	0.371838	0.371326	-0.0393967	2	7.98648e-05	13	0	7.7409	-1.4629e-05	9425.3
2	0	0	1	0	1	39.7135	0.352861	0.352396	-0.0377069	2	1.37738e-05	13	0	9.6386	-1.32877e-05	9345.67
2	1	0	1	0	0	41.4781	0.364796	0.364351	0.0291446	3	4.70031e-05	13	0	1.3984	1.06189e-05	12501.5
2	1	0	1	0	0	43.3758	0.383774	0.383369	0.0366486	3	0.000106374	13	0	3.2961	1.40499e-05	10460.7
2	1	0	1	0	0	45.2735	0.402751	0.402368	0.0329592	3	0.000163077	13	0	5.1938	1.32617e-05	12208.1
2	1	0	1	0	0	47.1713	0.421729	0.421323	0.0224512	3	0.0002168	13	0	7.0916	9.45922e-06	18766.1
2	1	0	1	0	0	49.0691	0.440706	0.440237	0.0240126	3	0.000268137	13	0	8.9894	1.05712e-05	18333.6
2	0	0	1	0	0	50.8726	0.441256	0.440783	-0.0175566	3	0.000274461	13	0	0.7991	-7.73866e-06	25106.4
2	0	0	1	0	0	52.7703	0.422278	0.42179	-0.0300397	3	0.000227264	13	0	2.6968	-1.26704e-05	14041.1
2	0	0	1	0	0	54.6681	0.403301	0.402851	-0.0305267	3	0.000175463	13	0	4.5946	-1.22977e-05	13196.7
2	0	0	1	0	0	56.5659	0.384323	0.383864	-0.0253818	3	0.000119075	13	0	6.4924	-9.74317e-06	15123.6
2	0	0	1	0	0	58.4636	0.365347	0.364894	-0.0290202	3	5.73958e-05	13	0	8.3901	-1.05893e-05	12573.8
2	1	0	1	0	1	60.2881	0.352911	0.352481	0.0246646	4	8.95744e-06	13	0	0.2598	8.69379e-06	14291
2	1	0	1	0	1	62.1858	0.371888	0.371444	0.0346577	4	6.8711e-05	13	0	2.1575	1.28734e-05	10717.5
2	1	0	1	0	1	64.0835	0.390866	0.39048	0.0349377	4	0.00012716	13	0	4.0552	1.36425e-05	11176.5
2	1	0	1	0	1	65.9813	0.409843	0.409406	0.0282953	4	0.000182501	13	0	5.953	1.15843e-05	14469.1
2	1	0	1	0	1	67.8791	0.428821	0.428373	0.0229526	4	0.000235361	13	0	7.8508	9.83225e-06	18663.4
2	1	0	1	0	1	69.7768	0.447798	0.447324	0.0320442	4	0.00028595	13	0	9.7485	1.43341e-05	13959.6
2	0	0	1	0	1	71.6803	0.433165	0.432641	-0.030622	4	0.000253948	13	0	1.6581	-1.32483e-05	14128.4
2	0	0	1	0	1	73.578	0.414188	0.413706	-0.0206451	4	0.000204676	13	0	3.5558	-8.54101e-06	20038.9
2	0	0	1	0	1	75.4757	0.39521	0.394724	-0.0360221	4	0.000150955	13	0	5.4535	-1.42188e-05	10957.9
2	0	0	1	0	1	77.3735	0.376233	0.375801	-0.0262222	4	9.24195e-05	13	0	7.3513	-9.85433e-06	14331.4
2	0	0	1	0	1	79.2713	0.357255	0.356759	-0.0411402	4	2.80683e-05	13	0	9.2491	-1.46771e-05	8671.8
2	1	0	1	0	0	81.1357	0.3614	0.360957	0.0371084	5	3.43268e-05	13	0	1.1088	1.33945e-05	9727.11
2	1	0	1	0	0	83.0334	0.380378	0.379913	0.0254373	5	9.40351e-05	13	0	3.0065	9.66396e-06	14935.3
2	1	0	1	0	0	84.9311	0.399355	0.398933	0.0339424	5	0.00015106	13	0	4.9042	1.35408e-05	11753.2
2	1	0	1	0	0	86.8289	0.418333	0.417874	0.0253622	5	0.000205288	13	0	6.802	1.05982e-05	16476.3
2	1	0	1	0	0	88.7267	0.43731	0.436831	0.0235709	5	0.000257061	13	0	8.6998	1.02965e-05	18532.7
2	0	0	1	0	0	90.6301	0.443653	0.443166	-0.017077	5	0.000277722	13	0	0.5444	-7.56796e-06	25951
2	0	0	1	0	0	92.5279	0.424675	0.424154	-0.0307649	5	0.000231295	13	0	2.4422	-1.3049e-05	13786.9
2	0	0	1	0	0	94.4256	0.405698	0.405253	-0.0248845	5	0.000180145	13	0	4.3399	-1.00845e-05	16285.4
2	0	0	1	0	0	96.3233	0.38672	0.386264	-0.0311355	5	0.000124512	13	0	6.2376	-1.20265e-05	12405.9
2	0	0	1	0	0	98.2211	0.367743	0.367256	-0.0361339	5	6.35888e-05	13	0	8.1354	-1.32704e-05	10163.8
2	0	0	1	0	1	100.025	0.350314	0.349862	0.00539665	6	9.9004e-07	13	0	0.000000000000000E+000	1.88808e-06	64829.5
2	1	0	1	0	1	101.983	0.36989	0.36947	0.0349615	6	6.08885e-05	13	0	1.9578	1.29172e-05	10567.9
2	1	0	1	0	1	103.881	0.388869	0.388415	0.0252991	6	0.000119443	13	0	3.8555	9.82656e-06	15352.9
2	1	0	1	0	1	105.779	0.407845	0.407369	0.0321301	6	0.00017521	13	0	5.7532	1.30888e-05	12678.7
2	1	0	1	0	1	107.676	0.426823	0.426363	0.0222852	6	0.000228248	13	0	7.651	9.50158e-06	19132.2
2	1	0	1	0	1	109.574	0.4458	0.44533	0.0310681	6	0.000279154	13	0	9.5488	1.38355e-05	14334
2	0	0	1	0	1	111.478	0.435163	0.43465	-0.0269011	6	0.000257552	13	0	1.4583	-1.16925e-05	16157.4
2	0	0	1	0	1	113.375	0.416186	0.415689	-0.0256258	6	0.000208911	13	0	3.3561	-1.06524e-05	16221.5
2	0	0	1	0	1	115.273	0.397208	0.396735	-0.0282334	6	0.000155763	13	0	5.2538	-1.12012e-05	14052
2	0	0	1	0	1	117.171	0.378231	0.377825	-0.0351671	6	9.79831e-05	13	0	7.1515	-1.3287e-05	10743.7
2	0	0	1	0	1	119.069	0.359253	0.358767	-0.0292991	6	3.44319e-05	13	0	9.0493	-1.05116e-05	12245
2	1	0	1	0	0	120.933	0.359403	0.358953	0.0372779	7	2.78267e-05	13	0	0.909	1.3381e-05	9629.12
2	1	0	1	0	0	122.831	0.37838	0.377987	0.0267882	7	8.76213e-05	13	0	2.8068	1.01256e-05	14110.2
2	1	0	1	0	0	124.729	0.397359	0.396928	0.0312588	7	0.000145015	13	0	4.7045	1.24075e-05	12698.1
2	1	0	1	0	0	126.626	0.416335	0.415857	0.0311441	7	0.000199409	13	0	6.6022	1.29515e-05	13352.7
2	1	0	1	0	0	128.524	0.435313	0.434888	0.0207197	7	0.000251442	13	0	8.5	9.01076e-06	20989
2	0	0	1	0	0	130.427	0.445651	0.445146	-0.0160772	7	0.000281994	13	0	0.3446	-7.15668e-06	27688.1
2	0	0	1	0	0	132.325	0.426673	0.426192	-0.0320597	7	0.000236262	13	0	2.2424	-1.36636e-05	13293.7
2	0	0	1	0	0	134.223	0.407696	0.407226	-0.0209771	7	0.000185596	13	0	4.1402	-8.54243e-06	19412.9
2	0	0	1	0	0	136.121	0.388718	0.388227	-0.0367954	7	0.000130511	13	0	6.0379	-1.4285e-05	10551
2	0	0	1	0	0	138.018	0.369741	0.369301	-0.0273065	7	7.03852e-05	13	0	7.9356	-1.00843e-05	13524.3
2	0	0	1	0	0	139.916	0.350763	0.350274	-0.0426654	7	4.08249e-06	13	0	9.8334	-1.49446e-05	8209.8
2	1	0	1	0	1	141.781	0.367893	0.367416	0.0346463	8	5.51502e-05	13	0	1.693	1.27296e-05	10604.8
2	1	0	1	0	1	143.678	0.386869	0.38644	0.0246235	8	0.000113982	13	0	3.5907	9.5155e-06	15693.9
2	1	0	1	0	1	145.576	0.405848	0.405421	0.0353261	8	0.000169986	13	0	5.4884	1.4322e-05	11476.5
2	1	0	1	0	1	147.474	0.424825	0.424386	0.0230046	8	0.00022321	13	0	7.3862	9.76284e-06	18447.8
2	1	0	1	0	1	149.372	0.443803	0.443369	0.0284691	8	0.000274337	13	0	9.284	1.26223e-05	15573.7
2	0	0	1	0	1	151.275	0.437161	0.436666	-0.0215272	8	0.00026297	13	0	1.2585	-9.40021e-06	20284.3
2	0	0	1	0	1	153.173	0.418183	0.417697	-0.0306021	8	0.000214826	13	0	3.1563	-1.27824e-05	13649.3
2	0	0	1	0	1	155.071	0.399206	0.398714	-0.0245246	8	0.00016225	13	0	5.0541	-9.77829e-06	16257.7
2	0	0	1	0	1	156.968	0.380228	0.379774	-0.0373224	8	0.000105068	13	0	6.9518	-1.41741e-05	10175.5
2	0	0	1	0	1	158.866	0.361251	0.360777	-0.028747	8	4.23395e-05	13	0	8.8495	-1.03712e-05	12550.1
2	1	0	1	0	0	160.73	0.357405	0.356906	0.0351194	9	2.25035e-05	13	0	0.7092	1.25343e-05	10162.6
2	1	0	1	0	0	162.628	0.376383	0.375888	0.0305755	9	8.23342e-05	13	0	2.607	1.1493e-05	12293.8
2	1	0	1	0	0	164.526	0.39536	0.394958	0.0251059	9	0.000139958	13	0	4.5047	9.91578e-06	15731.7
2	1	0	1	0	0	166.424	0.414338	0.413835	0.0348242	9	0.00019461	13	0	6.4024	1.44115e-05	11883.5
2	1	0	1	0	0	168.321	0.433315	0.4329	0.0217181	9	0.000246863	13	0	8.3002	9.4018e-06	19932.7
2	0	0	1	0	0	170.212	0.447773	0.447271	-0.0233158	9	0.000287276	12	0	0.1324	-1.04285e-05	19183.2
2	0	0	1	0	0	172.128	0.428621	0.428142	-0.0188404	9	0.000242027	13	0	2.0476	-8.06638e-06	22724.6
2	0	0	1	0	0	174.025	0.409643	0.409138	-0.0329856	9	0.000191779	13	0	3.9454	-1.34957e-05	12403.5
2	0	0	1	0	0	175.923	0.390667	0.390225	-0.0302651	9	0.000137334	13	0	5.8431	-1.18102e-05	12893.6
2	0	0	1	0	0	177.821	0.371687	0.371267	-0.0281799	9	7.77896e-05	13	0	7.7409	-1.04623e-05	13174.9
2	0	0	1	0	0	179.719	0.352711	0.352258	-0.0420454	9	1.23417e-05	13	0	9.6386	-1.48108e-05	8378.05
2	1	0	1	0	1	181.578	0.365895	0.365494	0.0262222	10	4.98622e-05	13	0	1.4932	9.58407e-06	13938.4
2	1	0	1	0	1	183.476	0.384873	0.384439	0.0310603	10	0.000108955	13	0	3.391	1.19408e-05	12377.2
2	1	0	1	0	1	185.374	0.40385	0.403407	0.0340221	10	0.000165199	13	0	5.2887	1.37247e-05	11857.2
2	1	0	1	0	1	187.271	0.422828	0.422414	0.0213945	10	0.000218694	13	0	7.1864	9.03733e-06	19744.1
2	1	0	1	0	1	189.169	0.441805	0.44141	0.0287122	10	0.000270024	13	0	9.0842	1.26739e-05	15373.6
2	0	0	1	0	1	191.077	0.439108	0.438636	-0.0175903	10	0.000268568	13	0	1.0637	-7.71576e-06	24936.2
2	0	0	1	0	1	192.975	0.420131	0.419601	-0.0317865	10	0.000220906	13	0	2.9615	-1.33376e-05	13200.6
2	0	0	1	0	1	194.873	0.401153	0.400733	-0.028399	10	0.000168916	13	0	4.8593	-1.13804e-05	14110.8
2	0	0	1	0	1	196.771	0.382177	0.381714	-0.0326112	10	0.000112212	13	0	6.757	-1.24481e-05	11705
2	0	0	1	0	1	198.668	0.363198	0.362748	-0.0317709	10	5.02848e-05	13	0	8.6547	-1.15249e-05	11417.6
2	0	0	0	0	1	199.986	0.349989	0.349553	-0.0279534	10	3.57793e-06	13	0	9.9722	-9.77118e-06	12504.8