File: ACS_Catal_2026/Figures_Na_K/main_figures/data/EC/20251112_2-148_alpha_reproducibility/20251112_2-148_001_alpha_reproducibility_1_Na1_02_PEIS_C01.mpt
EC-Lab ASCII FILE
Nb header lines : 63

Potentio Electrochemical Impedance Spectroscopy

Run on channel : 1 (SN 69187)
User :
CE vs. WE compliance from -10 V to 10 V
Electrode connection : standard
Potential control : Ewe
Ewe ctrl range : min = -1.00 V, max = 1.00 V
Safety Limits :
	Do not start on E overload
Acquisition started on : 11/12/2025 13:54:05.582
Loaded Setting File :  C:\Users\User\Documents\EC-Lab\Data\Yatsuzuka\20251030_2-147_gamma_reproducibility\20251030_2-147_001_gamma1_K_1.mps
Saved on :
	File : 20251112_2-148_001_alpha_reproducibility_1_Na1_02_PEIS_C01.mpr
	Directory : C:\Users\User\Documents\EC-Lab\Data\Yatsuzuka\20251112_2-148_alpha_reproducibility\
	Host : 192.109.209.127
Device : SP-150e (SN .003883)
Address : 192.109.209.128
EC-LAB for windows v11.52 (software)
Internet server v11.52 (firmware)
Command interpretor v11.50 (firmware)
Electrode material :
Initial state :
Electrolyte :
Comments :
Electrode surface area : 0.001 cm2
Characteristic mass : 0.001 g
Equivalent Weight : 0.000 g/eq.
Density : 0.000 g/cm3
Volume (V) : 0.001 cm3
Cycle Definition : Charge/Discharge alternance
Mode                Single sine
E (V)               0.4500
vs.                 Ref
tE (h:m:s)          0:00:0.0000
record              0
dI                  0.000
unit dI             mA
dt (s)              0.000
fi                  500.000
unit fi             kHz
ff                  1.000
unit ff             Hz
Nd                  6
Points              per decade
spacing             Logarithmic
Va (mV)             10.0
pw                  0.10
Na                  2
corr                0
E range min (V)     -1.000
E range max (V)     1.000
I Range             Auto
Bandwidth           5
nc cycles           0
goto Ns'            0
nr cycles           0
inc. cycle          0

freq/Hz	Re(Z)/Ohm	-Im(Z)/Ohm	|Z|/Ohm	Phase(Z)/deg	time/s	<Ewe>/V	<I>/mA	Cs/uF	Cp/uF	cycle number	I Range	|Ewe|/V	|I|/A	Ns	(Q-Qo)/mA.h	Re(Y)/Ohm-1	Im(Y)/Ohm-1	|Y|/Ohm-1	Phase(Y)/deg	Re(C)/nF	Im(C)/nF	|C|/nF	Phase(C)/deg	Re(M)	Im(M)	|M|	Phase(M)/deg	Re(Permittivity)	Im(Permittivity)	|Permittivity|	Phase(Permittivity)/deg	Re(Resistivity)/Ohm.cm	Im(Resistivity)/Ohm.cm	|Resistivity|/Ohm.cm	Phase(Resistivity)/deg	Re(Conductivity)/mS/cm	Im(Conductivity)/mS/cm	|Conductivity|/mS/cm	Phase(Conductivity)/deg	Tan(Delta)	Loss Angle(Delta)/deg	dq/mA.h	Pwe/W	Rwe/Ohm
500019	16.0991	-2.09903	16.2353	7.42845	201.6	0.450154	0.0143853	-0.15164	-0.00253472	1	10	0.00497162	0.000306222	0	2.12452e-05	0.0610771	-0.00796337	0.061594	-7.42845	-2.53472	19.4407	19.6053	-97.4284	0.0000000E+000	0.0000000E+000	0.0000000E+000	97.4284	0.0000000E+000	0.0000000E+000	0.0000000E+000	-97.4284	0.0000000E+000	0.0000000E+000	0.0000000E+000	7.42845	0.0000000E+000	0.0000000E+000	0.0000000E+000	-7.42845	7.66976	82.5716	2.12452e-05	6.47559e-06	31292.7
231063	9.48196	-0.7611	9.51246	4.58919	202.445	0.449834	0.0105652	-0.905	-0.00579358	1	10	0.0102522	0.00107777	0	2.34286e-05	0.104788	-0.00841117	0.105125	-4.58919	-5.79358	72.1777	72.4099	-94.5892	0.0000000E+000	0.0000000E+000	0.0000000E+000	94.5892	0.0000000E+000	0.0000000E+000	0.0000000E+000	-94.5892	0.0000000E+000	0.0000000E+000	0.0000000E+000	4.58919	0.0000000E+000	0.0000000E+000	0.0000000E+000	-4.58919	12.4582	85.4108	-5.45493e-07	4.7526e-06	42576.9
106786	8.58968	-0.139513	8.59081	0.930511	203.29	0.449783	0.0121268	-10.6829	-0.00281741	1	10	0.0109515	0.00127479	0	2.56005e-05	0.116388	-0.00189036	0.116403	-0.930511	-2.81741	173.465	173.488	-90.9305	0.0000000E+000	0.0000000E+000	0.0000000E+000	90.9305	0.0000000E+000	0.0000000E+000	0.0000000E+000	-90.9305	0.0000000E+000	0.0000000E+000	0.0000000E+000	0.930511	0.0000000E+000	0.0000000E+000	0.0000000E+000	-0.930511	61.5691	89.0695	2.0909e-06	5.45442e-06	37090
49352.4	8.51411	-0.00647571	8.51411	0.0435783	204.136	0.449773	0.0149704	-497.995	-0.000288085	1	10	0.0106225	0.00124763	0	2.88472e-05	0.117452	-8.93323e-05	0.117452	-0.0435783	-0.28809	378.767	378.768	-90.0436	0.0000000E+000	0.0000000E+000	0.0000000E+000	90.0436	0.0000000E+000	0.0000000E+000	0.0000000E+000	-90.0436	0.0000000E+000	0.0000000E+000	0.0000000E+000	0.0435783	0.0000000E+000	0.0000000E+000	0.0000000E+000	-0.0435783	1314.78	89.9564	1.86133e-06	6.73328e-06	30044.1
22806.6	8.50802	0.0291553	8.50807	-0.196341	204.981	0.449772	0.0145251	239.355	0.00281071	1	10	0.0104826	0.00123208	0	3.2186e-05	0.117535	0.000402769	0.117536	0.196341	2.81074	820.213	820.218	-89.8037	0.0000000E+000	0.0000000E+000	0.0000000E+000	89.8037	0.0000000E+000	0.0000000E+000	0.0000000E+000	-89.8037	0.0000000E+000	0.0000000E+000	0.0000000E+000	-0.196341	0.0000000E+000	0.0000000E+000	0.0000000E+000	0.196341	291.817	89.8037	2.06234e-06	6.53296e-06	30965.2
10540.4	8.52534	0.0437687	8.52545	-0.294151	205.826	0.449764	0.0111988	344.985	0.0090927	1	10	0.0103208	0.00121059	0	3.53118e-05	0.117294	0.000602183	0.117296	0.294151	9.0927	1771.09	1771.11	-89.7058	0.0000000E+000	0.0000000E+000	0.0000000E+000	89.7058	0.0000000E+000	0.0000000E+000	0.0000000E+000	-89.7058	0.0000000E+000	0.0000000E+000	0.0000000E+000	-0.294151	0.0000000E+000	0.0000000E+000	0.0000000E+000	0.294151	194.782	89.7058	9.65565e-07	5.03681e-06	40161.8
4871.56	8.54043	0.0443331	8.54055	-0.297418	207.039	0.449768	0.0120392	736.927	0.0198568	1	10	0.0101206	0.00118501	0	4.1754e-05	0.117087	0.000607794	0.117088	0.297418	19.8567	3825.26	3825.31	-89.7026	0.0000000E+000	0.0000000E+000	0.0000000E+000	89.7026	0.0000000E+000	0.0000000E+000	0.0000000E+000	-89.7026	0.0000000E+000	0.0000000E+000	0.0000000E+000	-0.297418	0.0000000E+000	0.0000000E+000	0.0000000E+000	0.297418	192.642	89.7026	2.98174e-06	5.41485e-06	37358.6
2250.72	8.54835	0.0646136	8.5486	-0.433068	207.969	0.449762	0.012328	1094.4	0.0625221	1	10	0.0108721	0.0012718	0	4.48268e-05	0.116975	0.000884168	0.116978	0.433068	62.5219	8271.63	8271.87	-89.5669	0.0000000E+000	0.0000000E+000	0.0000000E+000	89.5669	0.0000000E+000	0.0000000E+000	0.0000000E+000	-89.5669	0.0000000E+000	0.0000000E+000	0.0000000E+000	-0.433068	0.0000000E+000	0.0000000E+000	0.0000000E+000	0.433068	132.299	89.5669	5.3414e-07	5.54469e-06	36482.8
1040.33	8.56718	0.104609	8.56782	-0.699569	209.12	0.449765	0.0119945	1462.45	0.218009	1	10	0.0100836	0.00117692	0	4.89255e-05	0.116707	0.00142504	0.116716	0.699569	218.009	17854.4	17855.7	-89.3004	0.0000000E+000	0.0000000E+000	0.0000000E+000	89.3004	0.0000000E+000	0.0000000E+000	0.0000000E+000	-89.3004	0.0000000E+000	0.0000000E+000	0.0000000E+000	-0.699569	0.0000000E+000	0.0000000E+000	0.0000000E+000	0.699569	81.8974	89.3004	3.62353e-06	5.3947e-06	37497.6
480.769	8.57932	0.201741	8.58169	-1.34705	210.05	0.44976	0.0114485	1640.92	0.906845	1	10	0.0101232	0.00117963	0	5.05545e-05	0.116495	0.00273936	0.116527	1.34705	906.845	38564.8	38575.4	-88.6529	0.0000000E+000	0.0000000E+000	0.0000000E+000	88.6529	0.0000000E+000	0.0000000E+000	0.0000000E+000	-88.6529	0.0000000E+000	0.0000000E+000	0.0000000E+000	-1.34705	0.0000000E+000	0.0000000E+000	0.0000000E+000	1.34705	42.5263	88.6529	7.96166e-07	5.14907e-06	39285.4
222.061	8.59829	0.405483	8.60785	-2.69999	210.974	0.449767	0.0116125	1767.57	3.92222	1	10	0.0101339	0.00117729	0	5.33069e-05	0.116044	0.00547247	0.116173	2.69999	3922.22	83170.9	83263.3	-87.3	0.0000000E+000	0.0000000E+000	0.0000000E+000	87.3	0.0000000E+000	0.0000000E+000	0.0000000E+000	-87.3	0.0000000E+000	0.0000000E+000	0.0000000E+000	-2.69999	0.0000000E+000	0.0000000E+000	0.0000000E+000	2.69999	21.2051	87.3	1.68196e-06	5.22291e-06	38731.3
102.667	8.63759	0.832211	8.67759	-5.50333	211.913	0.449769	0.0115119	1862.75	17.1326	1	10	0.0101391	0.00116842	0	5.60245e-05	0.114708	0.0110519	0.115239	5.50333	17132.6	177821	178644	-84.4967	0.0000000E+000	0.0000000E+000	0.0000000E+000	84.4967	0.0000000E+000	0.0000000E+000	0.0000000E+000	-84.4967	0.0000000E+000	0.0000000E+000	0.0000000E+000	-5.50333	0.0000000E+000	0.0000000E+000	0.0000000E+000	5.50333	10.3791	84.4967	1.6151e-06	5.17768e-06	39070.1
47.4443	8.72939	1.71564	8.89639	-11.119	212.824	0.449752	0.00993352	1955.28	72.7169	1	10	0.0101507	0.001141	0	5.94085e-05	0.110295	0.021677	0.112405	11.119	72716.9	369992	377070	-78.881	0.0000000E+000	0.0000000E+000	0.0000000E+000	78.881	0.0000000E+000	0.0000000E+000	0.0000000E+000	-78.881	0.0000000E+000	0.0000000E+000	0.0000000E+000	-11.119	0.0000000E+000	0.0000000E+000	0.0000000E+000	11.119	5.08811	78.881	1.4229e-06	4.46762e-06	45276.2
21.9144	8.88343	3.54406	9.56429	-21.7496	213.691	0.44975	0.00916205	2049.22	281.375	1	10	0.0101548	0.00106174	0	6.15413e-05	0.0971125	0.0387432	0.104556	21.7496	281375	705285	759341	-68.2504	0.0000000E+000	0.0000000E+000	0.0000000E+000	68.2504	0.0000000E+000	0.0000000E+000	0.0000000E+000	-68.2504	0.0000000E+000	0.0000000E+000	0.0000000E+000	-21.7496	0.0000000E+000	0.0000000E+000	0.0000000E+000	21.7496	2.50657	68.2504	2.03322e-06	4.12063e-06	49088.4
10.1329	9.15753	7.29942	11.7108	-38.5582	214.62	0.449758	0.0106137	2151.77	835.993	1	10	0.0101666	0.000868146	0	6.98317e-05	0.0667742	0.0532253	0.0853916	38.5582	835993	1.0488e+06	1.34122e+06	-51.4418	0.0000000E+000	0.0000000E+000	0.0000000E+000	51.4418	0.0000000E+000	0.0000000E+000	0.0000000E+000	-51.4418	0.0000000E+000	0.0000000E+000	0.0000000E+000	-38.5582	0.0000000E+000	0.0000000E+000	0.0000000E+000	38.5582	1.25456	51.4418	5.52394e-06	4.77358e-06	42375.4
4.68375	9.64909	15.3439	18.1257	-57.8361	215.67	0.449772	0.00154774	2214.57	1586.99	1	11	0.0101748	0.000561347	0	7.13474e-05	0.0293695	0.0467032	0.0551703	57.8361	1.58699e+06	997982	1.8747e+06	-32.1639	0.0000000E+000	0.0000000E+000	0.0000000E+000	32.1639	0.0000000E+000	0.0000000E+000	0.0000000E+000	-32.1639	0.0000000E+000	0.0000000E+000	0.0000000E+000	-57.8361	0.0000000E+000	0.0000000E+000	0.0000000E+000	57.8361	0.628854	32.1639	-4.57041e-07	6.96131e-07	290598
2.16533	10.2736	32.4179	34.0069	-72.416	217.386	0.449776	0.00124153	2267.31	2060.38	1	11	0.0101786	0.00029931	0	6.82092e-05	0.00888362	0.0280318	0.0294058	72.416	2.06038e+06	652960	2.16137e+06	-17.584	0.0000000E+000	0.0000000E+000	0.0000000E+000	17.584	0.0000000E+000	0.0000000E+000	0.0000000E+000	-17.584	0.0000000E+000	0.0000000E+000	0.0000000E+000	-72.416	0.0000000E+000	0.0000000E+000	0.0000000E+000	72.416	0.316912	17.584	3.47173e-06	5.58412e-07	362274
1.00006	11.7557	68.6905	69.6892	-80.2885	221.726	0.449773	0.000383533	2316.84	2250.91	1	12	0.0101785	0.000146056	0	7.47858e-05	0.00242056	0.0141438	0.0143494	80.2885	2.25091e+06	385219	2.28364e+06	-9.71148	0.0000000E+000	0.0000000E+000	0.0000000E+000	9.71148	0.0000000E+000	0.0000000E+000	0.0000000E+000	-9.71148	0.0000000E+000	0.0000000E+000	0.0000000E+000	-80.2885	0.0000000E+000	0.0000000E+000	0.0000000E+000	80.2885	0.171139	9.71149	-1.00629e-07	1.72503e-07	1.17271e+06