File: ACS_Catal_2026/Figures_Na_K/main_figures/data/EC/20251112_2-148_alpha_reproducibility/20251112_2-148_001_alpha_reproducibility_1_Na2_01_CVA_C01.mpt
EC-Lab ASCII FILE
Nb header lines : 66

Cyclic Voltammetry Advanced

Run on channel : 1 (SN 69187)
User :
CE vs. WE compliance from -10 V to 10 V
Electrode connection : standard
Potential control : Ewe
Ewe ctrl range : min = -1.00 V, max = 1.00 V
Safety Limits :
	Do not start on E overload
Acquisition started on : 11/12/2025 15:13:50.824
Loaded Setting File :  C:\Users\User\Documents\EC-Lab\Data\Yatsuzuka\20251030_2-147_gamma_reproducibility\20251030_2-147_001_gamma1_K_1.mps
Saved on :
	File : 20251112_2-148_001_alpha_reproducibility_1_Na2_01_CVA_C01.mpr
	Directory : C:\Users\User\Documents\EC-Lab\Data\Yatsuzuka\20251112_2-148_alpha_reproducibility\
	Host : 192.109.209.127
Device : SP-150e (SN .003883)
Address : 192.109.209.128
EC-LAB for windows v11.52 (software)
Internet server v11.52 (firmware)
Command interpretor v11.50 (firmware)
Electrode material :
Initial state :
Electrolyte :
Comments :
Electrode surface area : 0.001 cm2
Characteristic mass : 0.001 g
Equivalent Weight : 0.000 g/eq.
Density : 0.000 g/cm3
Volume (V) : 0.001 cm3
Cycle Definition : Charge/Discharge alternance
Ei (V)              0.350
vs.                 Ref
ti (h:m:s)          0:00:10.0000
dti (s)             0.0000
dE/dt               10.000
dE/dt unit          mV/s
E1 (V)              0.450
vs.                 Ref
t1 (h:m:s)          0:00:0.0000
dt1 (s)             0.1000
Step percent        50
N                   10
E range min (V)     -1.000
E range max (V)     1.000
I Range             Auto
I Range min         Unset
I Range max         Unset
I Range init        Unset
Bandwidth           5
E2 (V)              0.350
vs.                 Ref
t2 (h:m:s)          0:00:0.0000
dt2 (s)             0.1000
nc cycles           9
nr                  1
Reverse Scan        0
Ef (V)              0.000
vs.                 Eoc
tf (h:m:s)          0:00:0.0000
dtf (s)             0.1000

mode	ox/red	error	control changes	Ns changes	counter inc.	time/s	control/V	Ewe/V	<I>/mA	cycle number	(Q-Qo)/C	I Range	Ns	step time/s	Pwe/W	Rwe/Ohm
2	0	0	1	0	0	0.000000000000000E+000	0.34995	0.349686	-0.00118291	1	0.0000000E+000	13	0	0.000000000000000E+000	-4.13647e-07	295615
2	1	0	1	0	0	1.8748	0.368698	0.368452	0.0350937	1	5.66285e-05	13	0	1.8475	1.29304e-05	10499.1
2	1	0	1	0	0	3.7722	0.387673	0.387439	0.0259077	1	0.000113094	13	0	3.7449	1.00376e-05	14954.6
2	1	0	1	0	0	5.6695	0.406646	0.406415	0.0295639	1	0.000167002	13	0	5.6422	1.20152e-05	13747
2	1	0	1	0	0	7.5669	0.42562	0.425416	0.0247962	1	0.000217817	13	0	7.5396	1.05487e-05	17156.5
2	1	0	1	0	0	9.4643	0.444593	0.444369	0.0267753	1	0.000266519	13	0	9.437	1.18981e-05	16596.2
2	0	0	1	0	0	11.3384	0.436654	0.436389	-0.0169114	1	0.000253047	13	0	1.3082	-7.37997e-06	25804.4
2	0	0	1	0	0	13.2358	0.41768	0.417469	-0.029868	1	0.000207019	13	0	3.2056	-1.2469e-05	13977.2
2	0	0	1	0	0	15.1331	0.398707	0.398404	-0.0248893	1	0.000156923	13	0	5.1029	-9.91599e-06	16007.1
2	0	0	1	0	0	17.0305	0.379733	0.379507	-0.0312276	1	0.000102206	13	0	7.0003	-1.18511e-05	12152.9
2	0	0	1	0	0	18.9279	0.36076	0.360492	-0.032925	1	4.272e-05	13	0	8.8977	-1.18692e-05	10948.9
2	1	0	1	0	1	20.7929	0.357913	0.357655	0.0360572	2	2.73147e-05	13	0	0.694	1.2896e-05	9919.08
2	1	0	1	0	1	22.6903	0.376887	0.376685	0.0269568	2	8.38494e-05	13	0	2.5914	1.01542e-05	13973.7
2	1	0	1	0	1	24.5877	0.395861	0.395616	0.0217876	2	0.000138277	13	0	4.4888	8.61954e-06	18157.8
2	1	0	1	0	1	26.485	0.414834	0.414657	0.0220926	2	0.000190215	13	0	6.3861	9.16082e-06	18769.1
2	1	0	1	0	1	28.3824	0.433809	0.433573	0.024324	2	0.000239917	13	0	8.2835	1.05462e-05	17824.9
2	0	0	1	0	1	30.2865	0.44714	0.446916	-0.0156563	2	0.000275625	13	0	0.2447	-6.99707e-06	28545.4
2	0	0	1	0	1	32.1839	0.428166	0.427846	-0.0184567	2	0.000232432	13	0	2.1421	-7.89665e-06	23181
2	0	0	1	0	1	34.0812	0.409192	0.408931	-0.02001	2	0.000184427	13	0	4.0394	-8.1827e-06	20436.4
2	0	0	1	0	1	35.9786	0.390218	0.389922	-0.025533	2	0.000132332	13	0	5.9368	-9.95588e-06	15271.3
2	0	0	1	0	1	37.8759	0.371245	0.370991	-0.0364034	2	7.58794e-05	13	0	7.8341	-1.35053e-05	10191.1
2	0	0	1	0	1	39.7733	0.352271	0.351957	-0.0380164	2	1.3911e-05	13	0	9.7315	-1.33802e-05	9258.04
2	1	0	1	0	0	41.6383	0.366402	0.366165	0.0238789	3	5.15774e-05	13	0	1.6078	8.74361e-06	15334.2
2	1	0	1	0	0	43.5357	0.385375	0.385155	0.0266387	3	0.000107351	13	0	3.5052	1.026e-05	14458.5
2	1	0	1	0	0	45.4331	0.404349	0.404109	0.0332801	3	0.000160673	13	0	5.4026	1.34488e-05	12142.6
2	1	0	1	0	0	47.3304	0.423322	0.423175	0.0295016	3	0.00021153	13	0	7.2999	1.24843e-05	14344.1
2	1	0	1	0	0	49.2278	0.442296	0.442036	0.020157	3	0.000260427	13	0	9.1973	8.91009e-06	21929.7
2	0	0	1	0	0	51.1319	0.438652	0.438394	-0.0219812	3	0.000257445	13	0	1.0286	-9.63646e-06	19944
2	0	0	1	0	0	53.0293	0.419678	0.419453	-0.019085	3	0.000211823	13	0	2.926	-8.00528e-06	21978.1
2	0	0	1	0	0	54.9266	0.400705	0.400417	-0.0307785	3	0.000162164	13	0	4.8233	-1.23242e-05	13009.6
2	0	0	1	0	0	56.824	0.38173	0.381438	-0.0341956	3	0.000108457	13	0	6.7207	-1.30435e-05	11154.6
2	0	0	1	0	0	58.7213	0.362757	0.362453	-0.0274867	3	4.96161e-05	13	0	8.618	-9.96264e-06	13186.5
2	1	0	1	0	1	60.5864	0.355917	0.355702	0.0289573	4	2.06865e-05	13	0	0.4943	1.03002e-05	12283.7
2	1	0	1	0	1	62.4837	0.37489	0.374655	0.0357525	4	7.71027e-05	13	0	2.3916	1.33948e-05	10479.1
2	1	0	1	0	1	64.3811	0.393864	0.393615	0.0241755	4	0.00013176	13	0	4.289	9.51584e-06	16281.6
2	1	0	1	0	1	66.2785	0.412837	0.412662	0.0246931	4	0.000184163	13	0	6.1864	1.01899e-05	16711.7
2	1	0	1	0	1	68.1759	0.431811	0.431599	0.0322977	4	0.000234071	13	0	8.0838	1.39397e-05	13363.1
2	1	0	1	0	1	70.02	0.449737	0.449396	-0.00592193	4	0.000280274	13	0	0.000000000000000E+000	-2.66129e-06	75886.6
2	0	0	1	0	1	71.9773	0.430163	0.429921	-0.0236442	4	0.000237294	13	0	1.9573	-1.01651e-05	18182.9
2	0	0	1	0	1	73.8747	0.41119	0.410958	-0.0205718	4	0.000189811	13	0	3.8547	-8.45416e-06	19976.7
2	0	0	1	0	1	75.7721	0.392216	0.391935	-0.0345231	4	0.000138353	13	0	5.7521	-1.35308e-05	11352.8
2	0	0	1	0	1	77.6694	0.373243	0.372957	-0.027855	4	8.24056e-05	13	0	7.6494	-1.03887e-05	13389.3
2	0	0	1	0	1	79.5668	0.354268	0.354017	-0.0308096	4	2.09276e-05	13	0	9.5468	-1.09071e-05	11490.5
2	1	0	1	0	0	81.4318	0.364405	0.364207	0.0343793	5	4.55814e-05	13	0	1.3431	1.25212e-05	10593.8
2	1	0	1	0	0	83.3291	0.383378	0.383101	0.0227342	5	0.000101759	13	0	3.2404	8.70948e-06	16851.3
2	1	0	1	0	0	85.2265	0.402352	0.402097	0.034045	5	0.000155413	13	0	5.1378	1.36894e-05	11810.7
2	1	0	1	0	0	87.1239	0.421326	0.421059	0.0211924	5	0.000206587	13	0	7.0352	8.92327e-06	19868.4
2	1	0	1	0	0	89.0213	0.440299	0.440074	0.0303017	5	0.000255681	13	0	8.9326	1.3335e-05	14523.1
2	0	0	1	0	0	90.9253	0.440649	0.440417	-0.0283622	5	0.000261038	13	0	0.8288	-1.24912e-05	15528.3
2	0	0	1	0	0	92.8227	0.421675	0.421419	-0.0186176	5	0.000215959	13	0	2.7262	-7.84579e-06	22635.5
2	0	0	1	0	0	94.7201	0.402701	0.402419	-0.0324723	5	0.000166684	13	0	4.6236	-1.30675e-05	12392.7
2	0	0	1	0	0	96.6175	0.383728	0.383446	-0.0238956	5	0.000113467	13	0	6.521	-9.16266e-06	16046.8
2	0	0	1	0	0	98.5149	0.364754	0.364449	-0.0364871	5	5.53335e-05	13	0	8.4184	-1.32977e-05	9988.44
2	1	0	1	0	1	100.38	0.353919	0.35371	0.02528	6	1.54552e-05	13	0	0.2946	8.94178e-06	13991.7
2	1	0	1	0	1	102.277	0.372892	0.372649	0.0303484	6	7.20008e-05	13	0	2.1919	1.13093e-05	12279.1
2	1	0	1	0	1	104.175	0.391867	0.391655	0.0298871	6	0.000126866	13	0	4.0893	1.17054e-05	13104.5
2	1	0	1	0	1	106.072	0.41084	0.410627	0.0248835	6	0.000179486	13	0	5.9866	1.02179e-05	16502
2	1	0	1	0	1	107.969	0.429814	0.429582	0.0288826	6	0.000229542	13	0	7.884	1.24074e-05	14873.4
2	1	0	1	0	1	109.867	0.448787	0.448565	0.0219805	6	0.000277897	13	0	9.7814	9.85969e-06	20407.4
2	0	0	1	0	1	111.771	0.43216	0.431927	-0.0246027	6	0.000242855	13	0	1.7576	-1.06266e-05	17556.1
2	0	0	1	0	1	113.668	0.413187	0.41298	-0.0262213	6	0.000195969	13	0	3.6549	-1.08289e-05	15749.8
2	0	0	1	0	1	115.565	0.394213	0.393935	-0.023185	6	0.000144938	13	0	5.5523	-9.1334e-06	16990.9
2	0	0	1	0	1	117.463	0.375239	0.375004	-0.0363861	6	8.98282e-05	13	0	7.4497	-1.36449e-05	10306.2
2	0	0	1	0	1	119.36	0.356266	0.355982	-0.0271719	6	2.93728e-05	13	0	9.3471	-9.67271e-06	13101.1
2	1	0	1	0	0	121.225	0.362407	0.362202	0.0366277	7	4.24161e-05	13	0	1.1434	1.32666e-05	9888.75
2	1	0	1	0	0	123.123	0.381381	0.381125	0.0232618	7	9.85845e-05	13	0	3.0408	8.86567e-06	16384.1
2	1	0	1	0	0	125.02	0.400354	0.4001	0.0328779	7	0.000152378	13	0	4.9381	1.31545e-05	12169.3
2	1	0	1	0	0	126.917	0.419329	0.419123	0.0220494	7	0.00020372	13	0	6.8355	9.24139e-06	19008.4
2	1	0	1	0	0	128.815	0.438302	0.438054	0.0287195	7	0.000252974	13	0	8.7328	1.25807e-05	15252.9
2	0	0	1	0	0	130.719	0.442646	0.442392	-0.0252615	7	0.000268946	13	0	0.6442	-1.11755e-05	17512.5
2	0	0	1	0	0	132.616	0.423673	0.423434	-0.0240269	7	0.000224499	13	0	2.5415	-1.01738e-05	17623.4
2	0	0	1	0	0	134.514	0.404698	0.404436	-0.0257045	7	0.000175652	13	0	4.4389	-1.03958e-05	15734.1
2	0	0	1	0	0	136.411	0.385725	0.385422	-0.0323445	7	0.000123005	13	0	6.3362	-1.24663e-05	11916.2
2	0	0	1	0	0	138.308	0.366751	0.36648	-0.0263311	7	6.55382e-05	13	0	8.2336	-9.64981e-06	13918.1
2	1	0	1	0	1	140.143	0.351623	0.351356	0.0249882	8	1.20644e-05	12	0	0.1299	8.77975e-06	14060.9
2	1	0	1	0	1	142.071	0.370895	0.370599	0.023803	8	6.90736e-05	13	0	2.0572	8.82136e-06	15569.4
2	1	0	1	0	1	143.968	0.389869	0.389574	0.0341595	8	0.000124188	13	0	3.9546	1.33076e-05	11404.5
2	1	0	1	0	1	145.865	0.408843	0.408616	0.0210189	8	0.000176942	13	0	5.852	8.58867e-06	19440.3
2	1	0	1	0	1	147.763	0.427816	0.427568	0.032322	8	0.00022721	13	0	7.7493	1.38198e-05	13228.4
2	1	0	1	0	1	149.66	0.446791	0.446585	0.0195729	8	0.000275737	13	0	9.6467	8.74096e-06	22816.6
2	0	0	1	0	1	151.564	0.434158	0.433906	-0.0233028	8	0.000249562	13	0	1.493	-1.01112e-05	18620.3
2	0	0	1	0	1	153.462	0.415185	0.414919	-0.0250295	8	0.000203143	13	0	3.3903	-1.03852e-05	16577.2
2	0	0	1	0	1	155.359	0.39621	0.395917	-0.0219246	8	0.000152583	13	0	5.2877	-8.68035e-06	18058.1
2	0	0	1	0	1	157.256	0.377236	0.376995	-0.033638	8	9.78759e-05	13	0	7.1851	-1.26814e-05	11207.4
2	0	0	1	0	1	159.154	0.358263	0.35794	-0.039391	8	3.81404e-05	13	0	9.0824	-1.40996e-05	9086.83
2	1	0	1	0	0	161.019	0.36041	0.360212	0.0283643	9	3.78587e-05	13	0	1.0086	1.02172e-05	12699.5
2	1	0	1	0	0	162.916	0.379384	0.379159	0.0223649	9	9.41748e-05	13	0	2.906	8.47984e-06	16953.3
2	1	0	1	0	0	164.813	0.398357	0.398081	0.0275955	9	0.000148217	13	0	4.8034	1.09852e-05	14425.6
2	1	0	1	0	0	166.711	0.417331	0.417106	0.0329906	9	0.000199802	13	0	6.7008	1.37606e-05	12643.2
2	1	0	1	0	0	168.608	0.436305	0.436083	0.0284373	9	0.000249176	13	0	8.5982	1.2401e-05	15334.9
2	0	0	1	0	0	170.512	0.444643	0.444384	-0.0275023	9	0.00027472	13	0	0.5093	-1.22216e-05	16158.1
2	0	0	1	0	0	172.41	0.425669	0.425348	-0.0239506	9	0.000230768	13	0	2.4067	-1.01873e-05	17759.4
2	0	0	1	0	0	174.307	0.406696	0.40641	-0.0203005	9	0.00018245	13	0	4.3041	-8.25032e-06	20019.7
2	0	0	1	0	0	176.204	0.387723	0.387404	-0.0271213	9	0.000130139	13	0	6.2014	-1.05069e-05	14284.1
2	0	0	1	0	0	178.102	0.368748	0.368444	-0.0378054	9	7.34421e-05	13	0	8.0988	-1.39292e-05	9745.81
2	0	0	0	0	0	179.974	0.35	0.349877	-0.0470969	9	1.19534e-05	13	0	9.9712	-1.64781e-05	7428.87
2	1	0	1	0	1	181.864	0.368899	0.368644	0.0273412	10	6.4852e-05	13	0	1.8575	1.00791e-05	13483.1
2	1	0	1	0	1	183.761	0.387872	0.38761	0.0351798	10	0.00012015	13	0	3.7548	1.3636e-05	11018
2	1	0	1	0	1	185.659	0.406846	0.406619	0.0242989	10	0.00017305	13	0	5.6522	9.88037e-06	16734.1
2	1	0	1	0	1	187.556	0.425819	0.42556	0.0208008	10	0.000223669	13	0	7.5496	8.85197e-06	20458.8
2	1	0	1	0	1	189.454	0.444793	0.444557	0.0298451	10	0.000272221	13	0	9.447	1.32679e-05	14895.5
2	0	0	1	0	1	191.358	0.436155	0.435904	-0.0253115	10	0.000255698	13	0	1.2932	-1.10334e-05	17221.6
2	0	0	1	0	1	193.255	0.417181	0.416974	-0.0311054	10	0.000209716	13	0	3.1906	-1.29702e-05	13405.2
2	0	0	1	0	1	195.152	0.398208	0.397915	-0.0239498	10	0.000159701	13	0	5.088	-9.53e-06	16614.6
2	0	0	1	0	1	197.05	0.379234	0.378988	-0.0250131	10	0.000105549	13	0	6.9854	-9.47967e-06	15151.6
2	0	0	1	0	1	198.947	0.360261	0.359985	-0.0391812	10	4.65345e-05	13	0	8.8827	-1.41046e-05	9187.71
2	0	0	0	0	1	199.971	0.35	0.349762	-0.023088	10	1.23143e-05	13	0	9.9063	-8.07531e-06	15149.1