File: ACS_Catal_2026/Figures_Na_K/main_figures/data/EC/20251112_2-148_alpha_reproducibility/20251112_2-148_004_Na_first_2_Na1_03_CVA_C02.mpt
EC-Lab ASCII FILE
Nb header lines : 66

Cyclic Voltammetry Advanced

Run on channel : 2 (SN 69290)
User :
CE vs. WE compliance from -10 V to 10 V
Electrode connection : standard
Potential control : Ewe
Ewe ctrl range : min = -1.00 V, max = 1.00 V
Safety Limits :
	Do not start on E overload
Acquisition started on : 11/12/2025 15:49:31.265
Loaded Setting File :  C:\Users\User\Documents\EC-Lab\Data\Yatsuzuka\20251112_2-148_alpha_reproducibility\20251112_2-148_002_alpha_reproducibility_2_K1.mps
Saved on :
	File : 20251112_2-148_004_Na_first_2_Na1_03_CVA_C02.mpr
	Directory : C:\Users\User\Documents\EC-Lab\Data\Yatsuzuka\20251112_2-148_alpha_reproducibility\
	Host : 192.109.209.127
Device : SP-150e (SN .003883)
Address : 192.109.209.128
EC-Lab for windows v11.52 (software)
Internet server v11.52 (firmware)
Command interpretor v11.50 (firmware)
Electrode material :
Initial state :
Electrolyte :
Comments :
Electrode surface area : 0.001 cm2
Characteristic mass : 0.001 g
Equivalent Weight : 0.000 g/eq.
Density : 0.000 g/cm3
Volume (V) : 0.001 cm3
Cycle Definition : Charge/Discharge alternance
Ei (V)              0.450
vs.                 Ref
ti (h:m:s)          0:00:10.0000
dti (s)             0.0000
dE/dt               5.000
dE/dt unit          mV/s
E1 (V)              0.700
vs.                 Ref
t1 (h:m:s)          0:00:0.0000
dt1 (s)             0.1000
Step percent        50
N                   10
E range min (V)     -1.000
E range max (V)     1.000
I Range             10 mA
I Range min         Unset
I Range max         Unset
I Range init        Unset
Bandwidth           5
E2 (V)              0.450
vs.                 Ref
t2 (h:m:s)          0:00:0.0000
dt2 (s)             0.1000
nc cycles           14
nr                  1
Reverse Scan        0
Ef (V)              0.000
vs.                 Eoc
tf (h:m:s)          0:00:0.0000
dtf (s)             0.1000

mode	ox/red	error	control changes	Ns changes	counter inc.	time/s	control/V	Ewe/V	<I>/mA	cycle number	(Q-Qo)/C	I Range	Ns	step time/s	P/W
2	0	0	1	0	0	231.863	0.450021	0.449458	-0.00447789	1	0.0000000E+000	11	0	0.000000000000000E+000	-2.01262e-06
2	1	0	1	0	0	244.703	0.51422	0.51372	0.0306061	1	0.000308993	11	0	12.7849	1.57229e-05
2	1	0	1	0	0	257.588	0.578643	0.578205	0.0615372	1	0.000861017	11	0	25.6696	3.55811e-05
2	1	0	1	0	0	270.473	0.643066	0.642565	0.194012	1	0.00226112	11	0	38.5543	0.000124666
2	1	0	1	0	0	283.108	0.693756	0.693332	0.66431	1	0.0082862	11	0	51.1897	0.000460587
2	1	0	1	0	0	295.993	0.629333	0.628895	0.0565414	1	0.0114917	11	0	64.0744	3.55586e-05
2	1	0	1	0	0	308.877	0.56491	0.56447	0.000782567	1	0.011706	11	0	0.000000000000000E+000	4.41736e-07
2	0	0	1	0	0	321.762	0.500485	0.500022	-0.0109059	1	0.0116297	11	0	12.4852	-5.45321e-06
2	1	0	1	0	1	334.416	0.462831	0.462357	0.0153767	2	0.0115615	11	0	2.4971	7.10952e-06
2	1	0	0	0	1	347.301	0.527254	0.526748	0.014173	2	0.0117729	11	0	15.3818	7.46561e-06
2	1	0	1	0	1	360.186	0.591677	0.591257	0.0298901	2	0.0120332	11	0	28.2665	1.76727e-05
2	1	0	1	0	1	373.071	0.656101	0.655685	0.173406	2	0.0129885	11	0	41.1512	0.0001137
2	1	0	0	0	1	385.696	0.680772	0.680338	0.343341	2	0.0184349	11	0	53.7766	0.000233588
2	1	0	1	0	1	398.581	0.616349	0.615875	0.0213875	2	0.02004	11	0	66.6613	1.3172e-05
2	1	0	1	0	1	411.465	0.551924	0.551465	-0.00644414	2	0.0200677	11	0	5.2938	-3.55372e-06
2	0	0	1	0	1	424.35	0.487501	0.487033	-0.0100607	2	0.0199483	11	0	18.1785	-4.89991e-06
2	0	0	1	0	0	437.004	0.475815	0.475374	0.0131214	3	0.0199342	11	0	5.094	6.23759e-06
2	1	0	1	0	0	449.889	0.540238	0.539773	0.016343	3	0.0201296	11	0	17.9787	8.82149e-06
2	1	0	0	0	0	462.774	0.604662	0.604206	0.0340142	3	0.0203946	11	0	30.8634	2.05516e-05
2	1	0	1	0	0	475.658	0.669085	0.668677	0.241854	3	0.0216665	11	0	43.7481	0.000161722
2	1	0	1	0	0	488.284	0.667787	0.667354	0.188894	3	0.0267746	11	0	56.3735	0.000126059
2	1	0	1	0	0	501.169	0.603363	0.602859	0.00763414	3	0.0276082	11	0	69.2583	4.60231e-06
2	1	0	0	0	0	514.053	0.53894	0.538505	-0.00683616	3	0.0275631	11	0	8.7896	-3.68131e-06
2	1	0	1	0	0	526.938	0.474516	0.474047	-0.00927722	3	0.0274297	11	0	21.6743	-4.39784e-06
2	0	0	1	0	1	539.592	0.488799	0.488366	0.0120096	4	0.0274798	11	0	7.7459	5.86506e-06
2	1	0	1	0	1	552.477	0.553223	0.552769	0.01591	4	0.02767	11	0	20.6306	8.79457e-06
2	1	0	1	0	1	565.362	0.617647	0.617214	0.0412919	4	0.027972	11	0	33.5154	2.54859e-05
2	1	0	1	0	1	578.246	0.682071	0.681641	0.357669	4	0.0298127	11	0	46.4001	0.000243802
2	1	0	1	0	1	590.872	0.654802	0.654374	0.104916	4	0.0342622	11	0	59.0255	6.86542e-05
2	1	0	1	0	1	603.757	0.590379	0.589908	-0.00106324	4	0.0346849	11	0	0.0999	-6.27216e-07
2	0	0	1	0	1	616.641	0.525955	0.525495	-0.0109664	4	0.034602	11	0	11.9858	-5.76278e-06
2	0	0	0	0	1	629.526	0.461532	0.461025	-0.0117911	4	0.034461	11	0	24.8705	-5.436e-06
2	0	0	0	0	0	642.18	0.501784	0.501341	0.0131877	5	0.0345777	11	0	10.3428	6.61155e-06
2	1	0	1	0	0	655.065	0.566207	0.565744	0.0158561	5	0.0347688	11	0	23.2275	8.9705e-06
2	1	0	1	0	0	667.95	0.630632	0.63022	0.0596641	5	0.0351413	11	0	36.1123	3.76015e-05
2	1	0	1	0	0	680.834	0.695055	0.694612	0.532239	5	0.0378941	11	0	48.997	0.000369699
2	1	0	0	0	0	693.46	0.641818	0.641387	0.058597	5	0.0412445	11	0	61.6224	3.75834e-05
2	1	0	1	0	0	706.344	0.577394	0.576976	-0.00257119	5	0.0414335	11	0	1.9976	-1.48352e-06
2	1	0	1	0	0	719.229	0.512971	0.512503	-0.00954985	5	0.0413285	11	0	14.8823	-4.89433e-06
2	0	0	1	0	1	731.883	0.450345	0.449845	0.00688708	6	0.0411842	11	0	0.000000000000000E+000	3.09812e-06
2	1	0	1	0	1	744.768	0.514768	0.514322	0.012436	6	0.0413632	11	0	12.8847	6.39609e-06
2	0	0	1	0	1	757.653	0.579193	0.578748	0.0164892	6	0.0415581	11	0	25.7695	9.54309e-06
2	1	0	0	0	1	770.538	0.643616	0.643151	0.0830721	6	0.0420514	11	0	38.6542	5.34279e-05
2	1	0	1	0	1	783.163	0.693257	0.692794	0.452431	6	0.0457704	11	0	51.2796	0.000313441
2	1	0	1	0	1	796.048	0.628833	0.628383	0.031255	6	0.0478623	11	0	64.1643	1.96401e-05
2	0	0	0	0	1	808.932	0.56441	0.563956	-0.00838694	6	0.0479197	11	0	4.7943	-4.72987e-06
2	0	0	1	0	1	821.817	0.499987	0.499513	-0.0117151	6	0.0478012	11	0	17.679	-5.85183e-06
2	0	0	1	0	0	834.471	0.463329	0.462863	0.0115702	7	0.0477184	11	0	2.5969	5.35542e-06
2	1	0	1	0	0	847.356	0.527754	0.527266	0.0159897	7	0.0478974	11	0	15.4817	8.43082e-06
2	1	0	1	0	0	860.241	0.592177	0.591736	0.0199094	7	0.0481035	11	0	28.3664	1.17811e-05
2	1	0	1	0	0	873.125	0.6566	0.656163	0.126968	7	0.0488012	11	0	41.2511	8.33117e-05
2	1	0	1	0	0	885.751	0.680272	0.679843	0.264616	7	0.0530468	11	0	53.8765	0.000179897
2	1	0	1	0	0	898.636	0.615849	0.615375	0.0144938	7	0.0542286	11	0	66.7612	8.91911e-06
2	1	0	1	0	0	911.52	0.551426	0.55094	-0.00676081	7	0.0542093	11	0	7.591	-3.7248e-06
2	0	0	1	0	0	924.405	0.487001	0.486554	-0.0100714	7	0.0540822	11	0	20.4758	-4.90026e-06
2	0	0	1	0	1	937.059	0.476315	0.47588	0.0128919	8	0.0540642	11	0	5.2489	6.13499e-06
2	1	0	0	0	1	949.944	0.540738	0.540266	0.0142143	8	0.0542419	11	0	18.1336	7.67951e-06
2	1	0	1	0	1	962.829	0.605161	0.604685	0.0261408	8	0.0544692	11	0	31.0183	1.58069e-05
2	1	0	1	0	1	975.713	0.669585	0.669096	0.199744	8	0.0554996	11	0	43.903	0.000133648
2	1	0	0	0	1	988.339	0.667288	0.666847	0.150601	8	0.0597301	11	0	56.5284	0.000100428
2	1	0	1	0	1	1001.22	0.602865	0.602387	0.00266518	8	0.0603637	11	0	69.4131	1.60547e-06
2	1	0	1	0	1	1014.11	0.53844	0.53801	-0.00688627	8	0.0602987	11	0	10.188	-3.70488e-06
2	1	0	1	0	1	1026.99	0.474017	0.473537	-0.00996331	8	0.0601643	11	0	23.0727	-4.718e-06
2	1	0	1	0	0	1039.65	0.489299	0.488824	0.0146273	9	0.0602115	11	0	7.7908	7.15016e-06
2	1	0	1	0	0	1052.53	0.553722	0.553263	0.0168245	9	0.0603896	11	0	20.6755	9.30836e-06
2	1	0	0	0	0	1065.42	0.618146	0.617703	0.0371716	9	0.0606558	11	0	33.5602	2.2961e-05
2	1	0	0	0	0	1078.3	0.68257	0.682112	0.310793	9	0.0622293	11	0	46.445	0.000211996
2	1	0	1	0	0	1090.93	0.654303	0.653831	0.0843611	9	0.0660547	11	0	59.0703	5.51579e-05
2	1	0	1	0	0	1103.81	0.589879	0.589421	5.39162e-05	9	0.0663803	11	0	0.0999	3.17793e-08
2	0	0	0	0	0	1116.7	0.525456	0.524982	-0.0114111	9	0.0662887	11	0	12.9846	-5.99065e-06
2	0	0	1	0	0	1129.58	0.461032	0.460539	-0.0136839	9	0.0661475	11	0	25.8693	-6.30197e-06
2	1	0	1	0	1	1142.24	0.502283	0.501825	0.0113211	10	0.0662599	11	0	10.4427	5.6812e-06
2	1	0	1	0	1	1155.12	0.566707	0.56623	0.0146802	10	0.0664389	11	0	23.3274	8.31239e-06
2	1	0	1	0	1	1168	0.631131	0.630634	0.0522003	10	0.0667717	11	0	36.2122	3.29193e-05
2	1	0	1	0	1	1180.89	0.695555	0.695138	0.477522	10	0.0692058	11	0	49.0969	0.000331943
2	1	0	1	0	1	1193.51	0.641318	0.640896	0.0452937	10	0.0721073	11	0	61.7223	2.90285e-05
2	0	0	1	0	1	1206.4	0.576895	0.576447	-0.00579746	10	0.072248	11	0	3.0964	-3.34193e-06
2	0	0	1	0	1	1219.28	0.512471	0.511982	-0.0106392	10	0.0721399	11	0	15.9811	-5.44709e-06
2	1	0	1	0	0	1231.94	0.450844	0.45036	0.011533	11	0.0719996	11	0	0.0999	5.194e-06
2	1	0	0	0	0	1244.82	0.515268	0.514798	0.0133095	11	0.0721723	11	0	12.9846	6.85172e-06
2	1	0	1	0	0	1257.71	0.579691	0.579196	0.0186641	11	0.0723573	11	0	25.8693	1.08102e-05
2	1	0	1	0	0	1270.59	0.644116	0.643645	0.0747617	11	0.0728038	11	0	38.7541	4.812e-05
2	1	0	0	0	0	1283.22	0.692758	0.692281	0.403089	11	0.0761695	11	0	51.3794	0.000279051
2	1	0	0	0	0	1296.1	0.628334	0.62786	0.0254843	11	0.077991	11	0	64.2642	1.60005e-05
2	1	0	1	0	0	1308.99	0.56391	0.563437	-0.00533135	11	0.0780223	11	0	5.4935	-3.00388e-06
2	0	0	1	0	0	1321.87	0.499487	0.498999	-0.0128245	11	0.0779022	11	0	18.3782	-6.39942e-06
2	1	0	1	0	1	1334.53	0.463829	0.463366	0.0148868	12	0.0778222	11	0	2.6968	6.89803e-06
2	1	0	1	0	1	1347.41	0.528252	0.527745	0.0153064	12	0.0779953	11	0	15.5815	8.07787e-06
2	1	0	1	0	1	1360.3	0.592676	0.592197	0.0179145	12	0.0781909	11	0	28.4663	1.06089e-05
2	1	0	0	0	1	1373.18	0.6571	0.656692	0.118532	12	0.0788265	11	0	41.351	7.78391e-05
2	1	0	1	0	1	1385.81	0.679773	0.679331	0.23696	12	0.0826951	11	0	53.9764	0.000160974
2	1	0	1	0	1	1398.69	0.615349	0.614912	0.0102945	12	0.083718	11	0	66.8611	6.33022e-06
2	0	0	0	0	1	1411.58	0.550926	0.550438	-0.0102936	12	0.083685	11	0	8.0904	-5.66597e-06
2	1	0	1	0	1	1424.46	0.486503	0.48602	-0.0103614	12	0.0835575	11	0	20.9751	-5.03586e-06
2	1	0	1	0	0	1437.11	0.476813	0.476363	0.0115174	13	0.0835412	11	0	5.3487	5.48645e-06
2	1	0	1	0	0	1450	0.541238	0.540777	0.0156221	13	0.0837143	11	0	18.2335	8.44809e-06
2	1	0	1	0	0	1462.88	0.605661	0.605225	0.0228711	13	0.0839313	11	0	31.1182	1.38422e-05
2	1	0	1	0	0	1475.77	0.670084	0.669615	0.18275	13	0.0848822	11	0	44.0029	0.000122372
2	1	0	1	0	0	1488.39	0.666788	0.666355	0.135423	13	0.0887954	11	0	56.6283	9.02399e-05
2	0	0	1	0	0	1501.28	0.602365	0.60184	0.000457285	13	0.0893556	11	0	69.513	2.75213e-07
2	0	0	1	0	0	1514.16	0.537942	0.537479	-0.0107215	13	0.0892856	11	0	10.9869	-5.7626e-06
2	0	0	1	0	0	1527.05	0.473517	0.4731	-0.0119874	13	0.0891523	11	0	23.8717	-5.67123e-06
2	1	0	1	0	1	1539.7	0.489799	0.489355	0.0138371	14	0.0892005	11	0	7.9457	6.77126e-06
2	1	0	0	0	1	1552.59	0.554222	0.553757	0.0143471	14	0.0893749	11	0	20.8304	7.94477e-06
2	1	0	1	0	1	1565.47	0.618645	0.618185	0.0312268	14	0.0896291	11	0	33.7151	1.93039e-05
2	1	0	1	0	1	1578.36	0.68307	0.682657	0.294032	14	0.0911002	11	0	46.5999	0.000200723
2	1	0	0	0	1	1590.98	0.653804	0.653414	0.075491	14	0.0946209	11	0	59.2252	4.93269e-05
2	1	0	1	0	1	1603.87	0.58938	0.588931	-0.00107959	14	0.0948988	11	0	0.6991	-6.35805e-07
2	1	0	1	0	1	1616.75	0.524956	0.524509	-0.00766556	14	0.094806	11	0	13.5839	-4.02066e-06
2	0	0	1	0	1	1629.64	0.460533	0.460089	-0.0136821	14	0.0946682	11	0	26.4686	-6.29497e-06
2	1	0	1	0	0	1642.29	0.502783	0.502306	0.0133326	15	0.0947823	11	0	10.5426	6.69703e-06
2	1	0	1	0	0	1655.17	0.567206	0.566763	0.0157426	15	0.0949589	11	0	23.4273	8.9223e-06
2	1	0	0	0	0	1668.06	0.63163	0.631185	0.048702	15	0.0952758	11	0	36.312	3.074e-05
2	1	0	0	0	0	1680.94	0.696054	0.695612	0.456466	15	0.0975717	11	0	49.1968	0.000317523
2	1	0	1	0	0	1693.57	0.64082	0.640381	0.0387278	15	0.100205	11	0	61.8221	2.48005e-05
2	1	0	1	0	0	1706.45	0.576395	0.576	-0.00311061	15	0.100315	11	0	2.9965	-1.79171e-06
2	1	0	0	0	0	1719.34	0.511972	0.51152	-0.00831298	15	0.100207	11	0	15.8812	-4.25226e-06
2	0	0	0	0	0	1731.73	0.450021	0.449592	-0.0227627	15	0.100069	11	0	28.2706	-1.02339e-05