File: ACS_Catal_2026/Figures_Na_K/main_figures/data/EC/20251112_2-148_alpha_reproducibility/20251112_2-148_002_alpha_reproducibility_2_Na2_03_CVA_C02.mpt
EC-Lab ASCII FILE
Nb header lines : 66

Cyclic Voltammetry Advanced

Run on channel : 2 (SN 69290)
User :
CE vs. WE compliance from -10 V to 10 V
Electrode connection : standard
Potential control : Ewe
Ewe ctrl range : min = -1.00 V, max = 1.00 V
Safety Limits :
	Do not start on E overload
Acquisition started on : 11/12/2025 15:15:43.590
Loaded Setting File :  C:\Users\User\Documents\EC-Lab\Data\Yatsuzuka\20251112_2-148_alpha_reproducibility\20251112_2-148_002_alpha_reproducibility_2_K1.mps
Saved on :
	File : 20251112_2-148_002_alpha_reproducibility_2_Na2_03_CVA_C02.mpr
	Directory : C:\Users\User\Documents\EC-Lab\Data\Yatsuzuka\20251112_2-148_alpha_reproducibility\
	Host : 192.109.209.127
Device : SP-150e (SN .003883)
Address : 192.109.209.128
EC-LAB for windows v11.52 (software)
Internet server v11.52 (firmware)
Command interpretor v11.50 (firmware)
Electrode material :
Initial state :
Electrolyte :
Comments :
Electrode surface area : 0.001 cm2
Characteristic mass : 0.001 g
Equivalent Weight : 0.000 g/eq.
Density : 0.000 g/cm3
Volume (V) : 0.001 cm3
Cycle Definition : Charge/Discharge alternance
Ei (V)              0.450
vs.                 Ref
ti (h:m:s)          0:00:10.0000
dti (s)             0.0000
dE/dt               5.000
dE/dt unit          mV/s
E1 (V)              0.700
vs.                 Ref
t1 (h:m:s)          0:00:0.0000
dt1 (s)             0.1000
Step percent        50
N                   10
E range min (V)     -1.000
E range max (V)     1.000
I Range             10 mA
I Range min         Unset
I Range max         Unset
I Range init        Unset
Bandwidth           5
E2 (V)              0.450
vs.                 Ref
t2 (h:m:s)          0:00:0.0000
dt2 (s)             0.1000
nc cycles           14
nr                  1
Reverse Scan        0
Ef (V)              0.000
vs.                 Eoc
tf (h:m:s)          0:00:0.0000
dtf (s)             0.1000

mode	ox/red	error	control changes	Ns changes	counter inc.	time/s	control/V	Ewe/V	<I>/mA	cycle number	(Q-Qo)/C	I Range	Ns	step time/s	Pwe/W	Rwe/Ohm
2	0	0	1	0	0	231.863	0.450021	0.449477	-0.00568583	1	0.0000000E+000	11	0	0.000000000000000E+000	-2.55565e-06	79052.2
2	1	0	1	0	0	245.902	0.520213	0.519765	0.0132888	1	0.000196522	11	0	13.9835	6.90706e-06	39112.9
2	1	0	1	0	0	259.985	0.590628	0.590165	0.0185535	1	0.000406532	11	0	28.0667	1.09496e-05	31808.9
2	1	0	1	0	0	274.068	0.661046	0.6606	0.109744	1	0.00100886	11	0	42.1501	7.24968e-05	6019.47
2	1	0	1	0	0	287.902	0.669785	0.66932	0.12778	1	0.00461558	11	0	55.984	8.55258e-05	5238.06
2	1	0	1	0	0	301.986	0.599368	0.598943	-0.00281886	1	0.00507694	11	0	1.5981	-1.68834e-06	212477
2	0	0	0	0	0	316.069	0.528952	0.528528	-0.00890585	1	0.00496974	11	0	15.6814	-4.70699e-06	59346.2
2	0	0	1	0	0	330.152	0.458535	0.458089	-0.0111829	1	0.00481754	11	0	29.7647	-5.12279e-06	40963.2
2	1	0	1	0	1	344.005	0.510773	0.510332	0.0120028	2	0.00495486	11	0	12.0857	6.12542e-06	42517.7
2	1	0	0	0	1	358.088	0.58119	0.580761	0.0148379	2	0.00514601	11	0	26.169	8.61729e-06	39140.3
2	1	0	1	0	1	372.172	0.651606	0.651149	0.0718089	2	0.00558055	11	0	40.2523	4.67583e-05	9067.8
2	1	0	0	0	1	385.996	0.679274	0.67884	0.192131	2	0.00898336	11	0	54.0762	0.000130426	3533.22
2	1	0	1	0	1	400.079	0.608857	0.608413	-0.000618946	2	0.00972697	11	0	0.000000000000000E+000	-3.76575e-07	982982
2	0	0	1	0	1	414.162	0.53844	0.537965	-0.00855266	2	0.00963262	11	0	14.0833	-4.60103e-06	62900.3
2	0	0	0	0	1	428.246	0.468024	0.467565	-0.0106127	2	0.00948243	11	0	28.1666	-4.96212e-06	44057.2
2	1	0	1	0	0	442.098	0.501284	0.500792	0.0140676	3	0.00957116	11	0	10.1879	7.04496e-06	35598.9
2	1	0	1	0	0	456.182	0.571702	0.571218	0.0138303	3	0.0097584	11	0	24.2713	7.9001e-06	41302
2	1	0	1	0	0	470.265	0.642117	0.641648	0.0496458	3	0.0100985	11	0	38.3545	3.18552e-05	12924.5
2	1	0	1	0	0	484.089	0.688762	0.68829	0.286811	3	0.01313	11	0	52.1785	0.000197409	2399.8
2	1	0	0	0	0	498.172	0.618346	0.617901	0.00515618	3	0.0143059	11	0	66.2618	3.18601e-06	119837
2	0	0	1	0	0	512.255	0.547929	0.547474	-0.00833621	3	0.0142322	11	0	12.3853	-4.56386e-06	65674.2
2	0	0	1	0	0	526.339	0.477513	0.477069	-0.0104034	3	0.014086	11	0	26.4686	-4.96314e-06	45856.9
2	1	0	0	0	1	540.192	0.491796	0.491311	0.0120075	4	0.0141276	11	0	8.2902	5.89943e-06	40916.8
2	1	0	1	0	1	554.275	0.562212	0.561752	0.0126788	4	0.0143118	11	0	22.3735	7.12232e-06	44306.5
2	1	0	1	0	1	568.358	0.632629	0.632173	0.0373573	4	0.0145924	11	0	36.4568	2.36163e-05	16922.3
2	1	0	1	0	1	582.182	0.698252	0.69783	0.425371	4	0.0170152	11	0	50.2807	0.000296837	1640.52
2	1	0	1	0	1	596.265	0.627834	0.627362	0.0117055	4	0.0188338	11	0	64.3641	7.34358e-06	53595.5
2	0	0	0	0	1	610.349	0.557418	0.556955	-0.00914852	4	0.0187908	11	0	10.2878	-5.09532e-06	60879.2
2	0	0	1	0	1	624.432	0.487001	0.486517	-0.0103773	4	0.0186493	11	0	24.3711	-5.04871e-06	46883
2	1	0	1	0	0	638.285	0.482307	0.481816	0.0127175	5	0.0186457	11	0	6.4474	6.12748e-06	37886.1
2	1	0	1	0	0	652.368	0.552723	0.552325	0.0121424	5	0.0188293	11	0	20.5307	6.70655e-06	45487.4
2	1	0	0	0	0	666.451	0.62314	0.622673	0.0275787	5	0.0190724	11	0	34.614	1.71725e-05	22578
2	1	0	1	0	0	680.535	0.693557	0.693111	0.368555	5	0.020846	11	0	48.6974	0.00025545	1880.62
2	1	0	1	0	0	694.359	0.637323	0.636854	0.0216193	5	0.0233033	11	0	62.5213	1.37683e-05	29457.7
2	0	0	1	0	0	708.442	0.566907	0.566418	-0.00701284	5	0.0233031	11	0	8.5898	-3.9722e-06	80768.8
2	0	0	1	0	0	722.525	0.49649	0.495999	-0.00961129	5	0.0231662	11	0	22.6731	-4.76719e-06	51605.9
2	1	0	1	0	1	736.378	0.472818	0.472317	0.011646	6	0.0231164	11	0	4.5497	5.50061e-06	40556.2
2	1	0	1	0	1	750.461	0.543235	0.542801	0.0132064	6	0.0232992	11	0	18.633	7.16847e-06	41101.3
2	1	0	1	0	1	764.545	0.613651	0.613213	0.0231819	6	0.0235179	11	0	32.7163	1.42155e-05	26452.2
2	1	0	0	0	1	778.628	0.684068	0.683617	0.254321	6	0.0247386	11	0	46.7996	0.000173858	2688.01
2	1	0	1	0	1	792.452	0.646813	0.646371	0.0362227	6	0.0277039	11	0	60.6235	2.34133e-05	17844.4
2	0	0	1	0	1	806.535	0.576395	0.575976	-0.00768956	6	0.027769	11	0	6.6921	-4.429e-06	74903.7
2	0	0	1	0	1	820.619	0.505979	0.50553	-0.011561	6	0.0276375	11	0	20.7754	-5.84441e-06	43727.4
2	1	0	1	0	0	834.471	0.463329	0.462868	0.0138004	7	0.0275429	11	0	2.5969	6.38775e-06	33540.2
2	1	0	0	0	0	848.555	0.533746	0.533325	0.0121193	7	0.0277253	11	0	16.6802	6.46354e-06	44006.2
2	1	0	1	0	0	862.638	0.604162	0.603707	0.0191224	7	0.0279293	11	0	30.7635	1.15443e-05	31570.7
2	1	0	1	0	0	876.721	0.67458	0.674129	0.172558	7	0.0287828	11	0	44.8469	0.000116326	3906.68
2	1	0	1	0	0	890.545	0.656301	0.65587	0.0599038	7	0.0320448	11	0	58.6708	3.92891e-05	10948.7
2	0	0	1	0	0	904.628	0.585884	0.585414	-0.0061141	7	0.0322133	11	0	4.9941	-3.57928e-06	95748.1
2	0	0	0	0	0	918.712	0.515468	0.51498	-0.0109204	7	0.0320902	11	0	19.0774	-5.62379e-06	47157.5
2	1	0	1	0	1	932.565	0.453841	0.453393	0.0111628	8	0.0319528	11	0	0.6992	5.06114e-06	40616.4
2	1	0	1	0	1	946.648	0.524258	0.523836	0.0117979	8	0.0321352	11	0	14.7825	6.18017e-06	44400.7
2	1	0	0	0	1	960.731	0.594674	0.594239	0.015581	8	0.0323305	11	0	28.8658	9.25886e-06	38138.6
2	1	0	1	0	1	974.814	0.665091	0.664619	0.115716	8	0.0329422	11	0	42.9491	7.6907e-05	5743.53
2	1	0	1	0	1	988.638	0.665789	0.66533	0.0952958	8	0.0363068	11	0	56.7731	6.34032e-05	6981.74
2	0	0	1	0	1	1002.72	0.595373	0.594896	-0.00376633	8	0.0366264	11	0	3.0964	-2.24058e-06	157951
2	0	0	1	0	1	1016.81	0.524956	0.524438	-0.00932927	8	0.0365112	11	0	17.1797	-4.89263e-06	56214.3
2	0	0	0	0	1	1030.89	0.45454	0.454087	-0.0130354	8	0.0363574	11	0	31.263	-5.91922e-06	34834.9
2	1	0	1	0	0	1044.74	0.514768	0.514311	0.0127543	9	0.0365119	11	0	12.8847	6.55968e-06	40324.5
2	1	0	1	0	0	1058.82	0.585186	0.584753	0.0141636	9	0.0367007	11	0	26.9681	8.28223e-06	41285.5
2	1	0	1	0	0	1072.91	0.655601	0.655208	0.0786107	9	0.0371556	11	0	41.0513	5.15064e-05	8334.84
2	1	0	1	0	0	1086.73	0.675278	0.674794	0.149446	9	0.0404522	11	0	54.8753	0.000100845	4515.31
2	1	0	0	0	0	1100.81	0.604862	0.604363	-0.00240364	9	0.0409998	11	0	1.0987	-1.45267e-06	251437
2	0	0	1	0	0	1114.9	0.534445	0.534035	-0.0094321	9	0.0408977	11	0	15.182	-5.03708e-06	56618.9
2	0	0	1	0	0	1128.98	0.464029	0.463588	-0.0110223	9	0.0407481	11	0	29.2653	-5.10981e-06	42059
2	1	0	0	0	1	1142.83	0.50528	0.50482	0.0121033	10	0.040856	11	0	10.987	6.11001e-06	41709.1
2	1	0	1	0	1	1156.92	0.575696	0.575234	0.0131948	10	0.0410417	11	0	25.0703	7.59008e-06	43595.6
2	1	0	1	0	1	1171	0.646113	0.645678	0.0557138	10	0.0413959	11	0	39.1536	3.59732e-05	11589.2
2	1	0	1	0	1	1184.82	0.684768	0.684335	0.230116	10	0.0444411	11	0	52.9775	0.000157476	2973.87
2	0	0	1	0	1	1198.91	0.61435	0.613898	0.00167706	10	0.0453426	11	0	67.0609	1.02955e-06	366055
2	0	0	0	0	1	1212.99	0.543934	0.543454	-0.00848855	10	0.045257	11	0	13.3842	-4.61314e-06	64022
2	0	0	1	0	1	1227.07	0.473517	0.473064	-0.0108427	10	0.0451115	11	0	27.4675	-5.12929e-06	43629.7
2	1	0	1	0	0	1240.93	0.495791	0.495344	0.0119998	11	0.0451732	11	0	9.1442	5.94402e-06	41279.5
2	1	0	1	0	0	1255.01	0.566207	0.565753	0.0140793	11	0.0453567	11	0	23.2275	7.96544e-06	40183.2
2	1	0	1	0	0	1269.09	0.636625	0.636166	0.038855	11	0.0456478	11	0	37.3109	2.47182e-05	16372.8
2	1	0	0	0	0	1282.92	0.694256	0.693817	0.344873	11	0.0482308	11	0	51.1348	0.000239279	2011.8
2	1	0	1	0	0	1297	0.623839	0.623374	0.00756117	11	0.0496526	11	0	65.2181	4.71344e-06	82444.1
2	1	0	1	0	0	1311.08	0.553423	0.552974	-0.00945684	11	0.0495917	11	0	11.4864	-5.22939e-06	58473.5
2	0	0	1	0	0	1325.17	0.483006	0.482558	-0.00997948	11	0.0494501	11	0	25.5697	-4.81567e-06	48355
2	1	0	1	0	1	1339.02	0.486303	0.485806	0.0127531	12	0.0494657	11	0	7.1915	6.19552e-06	38093.3
2	1	0	1	0	1	1353.1	0.556719	0.556244	0.0125315	12	0.0496488	11	0	21.2748	6.97059e-06	44387.6
2	1	0	1	0	1	1367.19	0.627135	0.626669	0.0303502	12	0.0498988	11	0	35.3581	1.90195e-05	20647.9
2	1	0	0	0	1	1381.27	0.697552	0.697088	0.410945	12	0.0518777	11	0	49.4414	0.000286465	1696.31
2	1	0	0	0	1	1395.09	0.633328	0.632893	0.0139576	12	0.0539274	11	0	63.2654	8.83365e-06	45344
2	0	0	1	0	1	1409.18	0.562911	0.562474	-0.007409	12	0.0539005	11	0	9.6886	-4.16737e-06	75917.8
2	0	0	1	0	1	1423.26	0.492495	0.492053	-0.00977575	12	0.0537622	11	0	23.7719	-4.81019e-06	50334.1
2	1	0	1	0	0	1437.11	0.476813	0.476339	0.0120063	13	0.0537321	11	0	5.3487	5.71909e-06	39674
2	1	0	0	0	0	1451.2	0.54723	0.546728	0.0120077	13	0.053913	11	0	19.432	6.56492e-06	45531.6
2	1	0	1	0	0	1465.28	0.617647	0.617227	0.0241554	13	0.0541354	11	0	33.5154	1.49094e-05	25552.3
2	1	0	1	0	0	1479.36	0.688064	0.687617	0.286824	13	0.0555001	11	0	47.5987	0.000197225	2397.35
2	1	0	1	0	0	1493.19	0.642817	0.642392	0.0268702	13	0.0581562	11	0	61.4226	1.72612e-05	23907.2
2	0	0	1	0	0	1507.27	0.5724	0.571944	-0.0068906	13	0.0581809	11	0	7.591	-3.94104e-06	83003.6
2	0	0	0	0	0	1521.35	0.501984	0.501556	-0.0102131	13	0.0580485	11	0	21.6743	-5.12246e-06	49108.9
2	1	0	1	0	1	1535.21	0.467325	0.466893	0.0128493	14	0.0579734	11	0	3.396	5.99927e-06	36336
2	1	0	1	0	1	1549.29	0.537742	0.537292	0.0121457	14	0.0581549	11	0	17.4793	6.52578e-06	44237.3
2	1	0	0	0	1	1563.37	0.608158	0.607715	0.0204133	14	0.058361	11	0	31.5626	1.24055e-05	29770.5
2	1	0	1	0	1	1577.46	0.678574	0.678113	0.194946	14	0.059309	11	0	45.6459	0.000132195	3478.47
2	1	0	1	0	1	1591.28	0.652305	0.651905	0.0446583	14	0.0623428	11	0	59.4699	2.9113e-05	14597.6
2	0	0	1	0	1	1605.36	0.581889	0.581448	-0.00593638	14	0.062448	11	0	5.7932	-3.4517e-06	97946.4
2	0	0	1	0	1	1619.45	0.511472	0.511015	-0.00974934	14	0.0623214	11	0	19.8765	-4.98206e-06	52415.3
2	0	0	0	0	0	1633.3	0.457836	0.457398	0.0132647	15	0.062203	11	0	1.5532	6.06727e-06	34482.3
2	1	0	1	0	0	1647.38	0.528252	0.527817	0.0116951	15	0.0623852	11	0	15.6365	6.17285e-06	45131.6
2	1	0	1	0	0	1661.47	0.59867	0.598204	0.0180505	15	0.0625815	11	0	29.7199	1.07979e-05	33140.6
2	1	0	1	0	0	1675.55	0.669085	0.668629	0.131035	15	0.0632543	11	0	43.8031	8.76138e-05	5102.67
2	1	0	1	0	0	1689.37	0.661794	0.661333	0.0748249	15	0.0664711	11	0	57.6271	4.94842e-05	8838.41
2	0	0	0	0	0	1703.46	0.591378	0.590899	-0.00577134	15	0.0667022	11	0	3.9953	-3.41028e-06	102385
2	0	0	1	0	0	1717.54	0.520961	0.520492	-0.00894317	15	0.0665835	11	0	18.0786	-4.65485e-06	58199.9
2	1	0	1	0	0	1731.62	0.450545	0.450079	-0.0132151	15	0.0664292	11	0	32.1619	-5.94785e-06	34057.9
2	0	0	0	0	0	1731.73	0.450021	0.44963	-0.0175213	15	0.066428	11	0	32.2659	-7.87812e-06	25661.8