File: ACS_Catal_2026/Figures_Na_K/main_figures/data/EC/20251112_2-148_alpha_reproducibility/20251112_2-148_005_gamma_reproducibility_Na2_01_CVA_C01.mpt
EC-Lab ASCII FILE
Nb header lines : 66

Cyclic Voltammetry Advanced

Run on channel : 1 (SN 69187)
User :
CE vs. WE compliance from -10 V to 10 V
Electrode connection : standard
Potential control : Ewe
Ewe ctrl range : min = -1.00 V, max = 1.00 V
Safety Limits :
	Do not start on E overload
Acquisition started on : 11/12/2025 20:57:12.203
Loaded Setting File :  C:\Users\User\Documents\EC-Lab\Data\Yatsuzuka\20251030_2-147_gamma_reproducibility\20251030_2-147_001_gamma1_K_1.mps
Saved on :
	File : 20251112_2-148_005_gamma_reproducibility_Na2_01_CVA_C01.mpr
	Directory : C:\Users\User\Documents\EC-Lab\Data\Yatsuzuka\20251112_2-148_alpha_reproducibility\
	Host : 192.109.209.127
Device : SP-150e (SN .003883)
Address : 192.109.209.128
EC-Lab for windows v11.52 (software)
Internet server v11.52 (firmware)
Command interpretor v11.50 (firmware)
Electrode material :
Initial state :
Electrolyte :
Comments :
Electrode surface area : 0.001 cm2
Characteristic mass : 0.001 g
Equivalent Weight : 0.000 g/eq.
Density : 0.000 g/cm3
Volume (V) : 0.001 cm3
Cycle Definition : Charge/Discharge alternance
Ei (V)              0.350
vs.                 Ref
ti (h:m:s)          0:00:10.0000
dti (s)             0.0000
dE/dt               10.000
dE/dt unit          mV/s
E1 (V)              0.450
vs.                 Ref
t1 (h:m:s)          0:00:0.0000
dt1 (s)             0.1000
Step percent        50
N                   10
E range min (V)     -1.000
E range max (V)     1.000
I Range             Auto
I Range min         Unset
I Range max         Unset
I Range init        Unset
Bandwidth           5
E2 (V)              0.350
vs.                 Ref
t2 (h:m:s)          0:00:0.0000
dt2 (s)             0.1000
nc cycles           9
nr                  1
Reverse Scan        0
Ef (V)              0.000
vs.                 Eoc
tf (h:m:s)          0:00:0.0000
dtf (s)             0.1000

mode	ox/red	error	control changes	Ns changes	counter inc.	time/s	control/V	Ewe/V	<I>/mA	cycle number	(Q-Qo)/C	I Range	Ns	step time/s	P/W
2	1	0	1	0	0	0.000000000000000E+000	0.34995	0.349762	0.00136812	1	0.0000000E+000	13	0	0.000000000000000E+000	4.78516e-07
2	1	0	1	0	0	1.7749	0.3677	0.367442	0.00229454	1	3.08781e-06	13	0	1.7476	8.4311e-07
2	1	0	1	0	0	3.5725	0.385675	0.38539	0.00112482	1	6.15242e-06	13	0	3.5452	4.33495e-07
2	0	0	1	0	0	5.3699	0.40365	0.403395	0.00148429	1	9.0733e-06	13	0	5.3426	5.98755e-07
2	1	0	1	0	0	7.1675	0.421625	0.421379	0.00190565	1	1.18399e-05	13	0	7.1402	8.03e-07
2	1	0	1	0	0	8.965	0.439601	0.439278	0.00107675	1	1.44803e-05	13	0	8.9377	4.72994e-07
2	0	0	1	0	0	10.6793	0.443245	0.442963	-0.00107765	1	1.5278e-05	13	0	0.6491	-4.7736e-07
2	0	0	1	0	0	12.4768	0.425271	0.425058	-0.000725938	1	1.31678e-05	13	0	2.4466	-3.08566e-07
2	0	0	1	0	0	14.2743	0.407295	0.407033	-0.00173845	1	1.08199e-05	13	0	4.2441	-7.07608e-07
2	0	0	1	0	0	16.0719	0.38932	0.389052	-0.00174115	1	8.25206e-06	13	0	6.0417	-6.77398e-07
2	0	0	1	0	0	17.8693	0.371345	0.371026	-0.00152163	1	5.45109e-06	13	0	7.8391	-5.64564e-07
2	0	0	1	0	0	19.6669	0.35337	0.353078	-0.00214613	1	2.41446e-06	13	0	9.6367	-7.5775e-07
2	0	0	1	0	1	21.3321	0.363306	0.363105	0.000838762	2	3.92869e-06	13	0	1.3257	3.04559e-07
2	1	0	1	0	1	23.1297	0.381281	0.381007	0.00218704	2	6.86856e-06	13	0	3.1233	8.33279e-07
2	0	0	1	0	1	24.9271	0.399256	0.399038	0.000880968	2	9.68902e-06	13	0	4.9207	3.5154e-07
2	1	0	1	0	1	26.7247	0.417231	0.416979	0.00218077	2	1.23816e-05	13	0	6.7183	9.09334e-07
2	1	0	1	0	1	28.5222	0.435207	0.434946	0.000989591	2	1.4948e-05	13	0	8.5158	4.30419e-07
2	0	0	1	0	1	30.2265	0.447739	0.447489	-0.00100547	2	1.67717e-05	13	0	0.1997	-4.49938e-07
2	1	0	1	0	1	32.0241	0.429764	0.429478	-0.00100047	2	1.47314e-05	13	0	1.9973	-4.2968e-07
2	1	0	1	0	1	33.8215	0.411789	0.411532	-0.00156716	2	1.24398e-05	13	0	3.7947	-6.44936e-07
2	1	0	1	0	1	35.6191	0.393814	0.393588	-0.000761341	2	9.9242e-06	13	0	5.5923	-2.99654e-07
2	1	0	1	0	1	37.4166	0.375838	0.375557	-0.00217891	2	7.18321e-06	13	0	7.3898	-8.18306e-07
2	0	0	1	0	1	39.2141	0.357864	0.35758	-0.00247627	2	4.19165e-06	13	0	9.1873	-8.85464e-07
2	1	0	1	0	0	40.8794	0.358813	0.358568	0.00234846	3	4.17206e-06	13	0	0.8764	8.42082e-07
2	1	0	1	0	0	42.6769	0.376787	0.376546	0.00128575	3	7.08438e-06	13	0	2.6739	4.84143e-07
2	1	0	1	0	0	44.4744	0.394763	0.394514	0.00103356	3	9.91418e-06	13	0	4.4714	4.07754e-07
2	0	0	1	0	0	46.2719	0.412737	0.41251	0.0018068	3	1.26131e-05	13	0	6.2689	7.45324e-07
2	1	0	1	0	0	48.0694	0.430712	0.430485	0.00193749	3	1.51843e-05	13	0	8.0664	8.34061e-07
2	1	0	1	0	0	49.8669	0.448687	0.448452	0.00133471	3	1.76393e-05	13	0	9.8639	5.98552e-07
2	0	0	1	0	0	51.6013	0.433958	0.43362	-0.00134691	3	1.60302e-05	14	0	1.5779	-5.84049e-07
2	0	0	1	0	0	53.3987	0.415983	0.415768	-0.000661367	3	1.37781e-05	14	0	3.3753	-2.74975e-07
2	0	0	1	0	0	55.1963	0.398008	0.397737	-0.00147805	3	1.13143e-05	14	0	5.1729	-5.87874e-07
2	0	0	1	0	0	56.9937	0.380033	0.379741	-0.00238071	3	8.63747e-06	14	0	6.9703	-9.04052e-07
2	0	0	1	0	0	58.7913	0.362058	0.361803	-0.000965812	3	5.72102e-06	14	0	8.7679	-3.49434e-07
2	0	0	1	0	1	60.4765	0.354818	0.354582	0.00217935	4	4.32707e-06	14	0	0.4494	7.72758e-07
2	1	0	1	0	1	62.2741	0.372793	0.372581	0.00169214	4	7.23293e-06	14	0	2.247	6.3046e-07
2	1	0	1	0	1	64.0715	0.390768	0.39048	0.000762252	4	1.00754e-05	14	0	4.0444	2.97644e-07
2	1	0	1	0	1	65.8691	0.408743	0.408516	0.00193644	4	1.27922e-05	14	0	5.842	7.91066e-07
2	1	0	1	0	1	67.6665	0.426718	0.426485	0.00213039	4	1.53748e-05	14	0	7.6394	9.08578e-07
2	1	0	1	0	1	69.4641	0.444693	0.444436	0.00127773	4	1.78349e-05	14	0	9.437	5.67869e-07
2	0	0	1	0	1	71.1684	0.438253	0.438002	-0.00174831	4	1.72999e-05	14	0	1.1758	-7.65764e-07
2	0	0	1	0	1	72.9659	0.420277	0.419998	-0.0013522	4	1.51112e-05	14	0	2.9733	-5.67924e-07
2	0	0	1	0	1	74.7635	0.402302	0.402065	-0.000710873	4	1.26989e-05	14	0	4.7709	-2.85817e-07
2	1	0	1	0	1	76.5609	0.384327	0.384059	-0.00154811	4	1.00776e-05	14	0	6.5683	-5.94565e-07
2	0	0	1	0	1	78.3585	0.366352	0.366032	-0.00247397	4	7.22249e-06	14	0	8.3659	-9.05553e-07
2	1	0	1	0	0	80.0237	0.350324	0.35012	0.00199855	5	4.42812e-06	14	0	0.000000000000000E+000	6.99732e-07
2	1	0	1	0	0	81.8213	0.368299	0.368058	0.000730599	5	7.28876e-06	14	0	1.7976	2.68903e-07
2	1	0	1	0	0	83.6187	0.386274	0.385986	0.00220011	5	1.01442e-05	14	0	3.595	8.49211e-07
2	1	0	1	0	0	85.4163	0.404249	0.404007	0.00144641	5	1.28703e-05	14	0	5.3926	5.8436e-07
2	1	0	1	0	0	87.2138	0.422225	0.422014	0.000958783	5	1.54695e-05	14	0	7.1901	4.04619e-07
2	1	0	1	0	0	89.0113	0.440199	0.439992	0.00202688	5	1.79435e-05	14	0	8.9876	8.9181e-07
2	0	0	1	0	0	90.7157	0.442746	0.442511	-0.000862699	5	1.85167e-05	14	0	0.6991	-3.81754e-07
2	0	0	1	0	0	92.5131	0.424771	0.424528	-0.00152009	5	1.63897e-05	14	0	2.4965	-6.45321e-07
2	0	0	1	0	0	94.3107	0.406796	0.406521	-0.00208603	5	1.40452e-05	14	0	4.2941	-8.48017e-07
2	0	0	1	0	0	96.1082	0.38882	0.388512	-0.00188068	5	1.14798e-05	14	0	6.0916	-7.30665e-07
2	0	0	1	0	0	97.9057	0.370846	0.370564	-0.00156316	5	8.69719e-06	14	0	7.8891	-5.79251e-07
2	0	0	1	0	0	99.7032	0.35287	0.352591	-0.000763483	5	5.65189e-06	14	0	9.6866	-2.69197e-07
2	1	0	1	0	1	101.368	0.363805	0.363612	0.000991442	6	7.30231e-06	14	0	1.3482	3.605e-07
2	1	0	1	0	1	103.166	0.381781	0.381499	0.00172255	6	1.01719e-05	14	0	3.1457	6.5715e-07
2	1	0	1	0	1	104.963	0.399755	0.39949	0.00227219	6	1.2925e-05	14	0	4.9432	9.07719e-07
2	1	0	1	0	1	106.761	0.41773	0.417526	0.00183405	6	1.55502e-05	14	0	6.7407	7.65762e-07
2	1	0	1	0	1	108.558	0.435706	0.43548	0.00105223	6	1.80494e-05	14	0	8.5382	4.58224e-07
2	0	0	1	0	1	110.263	0.44724	0.446969	-0.00128571	6	1.97022e-05	14	0	0.2497	-5.74673e-07
2	0	0	1	0	1	112.06	0.429264	0.429005	-0.00185569	6	1.7656e-05	14	0	2.0472	-7.96103e-07
2	0	0	1	0	1	113.858	0.411289	0.411031	-0.00199644	6	1.53639e-05	14	0	3.8447	-8.20601e-07
2	0	0	1	0	1	115.655	0.393314	0.392982	-0.0015993	6	1.28573e-05	14	0	5.6422	-6.28495e-07
2	0	0	1	0	1	117.453	0.375339	0.375078	-0.000851802	6	1.01375e-05	14	0	7.4397	-3.19492e-07
2	1	0	1	0	1	119.25	0.357365	0.357128	-0.00160946	6	7.16307e-06	14	0	9.2372	-5.74782e-07
2	1	0	1	0	0	120.916	0.359311	0.359024	0.00220492	7	7.29825e-06	14	0	0.9263	7.91618e-07
2	1	0	1	0	0	122.713	0.377286	0.377065	0.00207924	7	1.01812e-05	14	0	2.7238	7.84008e-07
2	1	0	1	0	0	124.511	0.395262	0.395008	0.000763237	7	1.29622e-05	14	0	4.5213	3.01485e-07
2	1	0	1	0	0	126.308	0.413236	0.413028	0.00191226	7	1.56135e-05	14	0	6.3188	7.89816e-07
2	1	0	1	0	0	128.106	0.431212	0.430942	0.00170356	7	1.8135e-05	14	0	8.1163	7.34137e-07
2	1	0	1	0	0	129.903	0.449187	0.448961	0.000671572	7	2.05532e-05	14	0	9.9139	3.0151e-07
2	0	0	1	0	0	131.608	0.433759	0.433473	-0.00122254	7	1.88986e-05	14	0	1.6252	-5.29941e-07
2	0	0	1	0	0	133.405	0.415783	0.415568	-0.00063643	7	1.66614e-05	14	0	3.4227	-2.64479e-07
2	0	0	1	0	0	135.203	0.397809	0.397525	-0.00199304	7	1.42121e-05	14	0	5.2202	-7.92286e-07
2	0	0	1	0	0	137	0.379833	0.379606	-0.00183329	7	1.15526e-05	14	0	7.0177	-6.95928e-07
2	0	0	1	0	0	138.798	0.361858	0.36156	-0.000761609	7	8.64795e-06	14	0	8.8153	-2.75368e-07
2	0	0	1	0	1	140.463	0.354818	0.35457	0.00163779	8	7.29648e-06	14	0	0.4494	5.8071e-07
2	1	0	1	0	1	142.26	0.372793	0.372611	0.0024063	8	1.01847e-05	14	0	2.247	8.96617e-07
2	1	0	1	0	1	144.058	0.390768	0.390487	0.00157632	8	1.29939e-05	14	0	4.0444	6.15534e-07
2	1	0	1	0	1	145.855	0.408743	0.40854	0.00108144	8	1.56754e-05	14	0	5.842	4.41811e-07
2	1	0	1	0	1	147.653	0.426718	0.426502	0.000931924	8	1.82241e-05	14	0	7.6394	3.97468e-07
2	1	0	1	0	1	149.45	0.444693	0.444467	0.00070683	8	2.06599e-05	14	0	9.437	3.14162e-07
2	0	0	1	0	1	151.155	0.438253	0.43798	-0.00172075	8	2.01242e-05	14	0	1.1484	-7.53654e-07
2	0	0	1	0	1	152.952	0.420277	0.420005	-0.00118815	8	1.79443e-05	14	0	2.9459	-4.9903e-07
2	0	0	1	0	1	154.75	0.402302	0.402009	-0.000667975	8	1.55488e-05	14	0	4.7435	-2.68532e-07
2	0	0	1	0	1	156.547	0.384327	0.384045	-0.000984775	8	1.2945e-05	14	0	6.5409	-3.78198e-07
2	0	0	1	0	1	158.345	0.366352	0.366102	-0.0021679	8	1.0109e-05	14	0	8.3385	-7.93674e-07
2	1	0	1	0	0	160.01	0.350324	0.350105	0.00245582	9	7.3401e-06	14	0	0.000000000000000E+000	8.59793e-07
2	1	0	1	0	0	161.808	0.368299	0.368078	0.00155672	9	1.01779e-05	14	0	1.7976	5.72996e-07
2	1	0	1	0	0	163.605	0.386274	0.385978	0.000784281	9	1.30144e-05	14	0	3.595	3.02716e-07
2	0	0	1	0	0	165.403	0.404249	0.403997	0.00142723	9	1.57163e-05	14	0	5.3926	5.76597e-07
2	1	0	1	0	0	167.2	0.422225	0.422015	0.00206545	9	1.82957e-05	14	0	7.1901	8.71651e-07
2	1	0	1	0	0	168.998	0.440199	0.440011	0.00124796	9	2.07544e-05	14	0	8.9876	5.49116e-07
2	0	0	1	0	0	170.702	0.442746	0.442458	-0.00164191	9	2.13173e-05	14	0	0.6991	-7.26477e-07
2	0	0	1	0	0	172.499	0.424771	0.424455	-0.00152017	9	1.92035e-05	14	0	2.4965	-6.45246e-07
2	0	0	1	0	0	174.297	0.406796	0.406507	-0.0013995	9	1.68652e-05	14	0	4.2941	-5.68905e-07
2	0	0	1	0	0	176.095	0.38882	0.388529	-0.000855375	9	1.43152e-05	14	0	6.0916	-3.32338e-07
2	0	0	1	0	0	177.892	0.370846	0.37057	-0.000869335	9	1.15446e-05	14	0	7.8891	-3.2215e-07
2	0	0	1	0	0	179.69	0.35287	0.352656	-0.00168659	9	8.51694e-06	14	0	9.6866	-5.94786e-07
2	0	0	1	0	1	181.355	0.363805	0.363589	0.00182296	10	1.01554e-05	14	0	1.3482	6.6281e-07
2	1	0	1	0	1	183.152	0.381781	0.381503	0.00233396	10	1.30122e-05	14	0	3.1457	8.90413e-07
2	1	0	1	0	1	184.95	0.399755	0.39949	0.00198981	10	1.57476e-05	14	0	4.9432	7.94911e-07
2	1	0	1	0	1	186.747	0.41773	0.417535	0.00123768	10	1.83541e-05	14	0	6.7407	5.16774e-07
2	1	0	1	0	1	188.545	0.435706	0.435487	0.000745554	10	2.08367e-05	14	0	8.5382	3.24679e-07
2	0	0	1	0	1	190.249	0.44724	0.446952	-0.00153176	10	2.24736e-05	14	0	0.2771	-6.84624e-07
2	0	0	1	0	1	192.047	0.429264	0.428939	-0.000996791	10	2.04357e-05	14	0	2.0746	-4.27562e-07
2	0	0	1	0	1	193.844	0.411289	0.411069	-0.000598478	10	1.81501e-05	14	0	3.8721	-2.46016e-07
2	1	0	1	0	1	195.642	0.393314	0.393014	-0.00152621	10	1.56556e-05	14	0	5.6696	-5.99823e-07
2	0	0	1	0	1	197.439	0.375339	0.375074	-0.00230588	10	1.29473e-05	14	0	7.4671	-8.64874e-07
2	0	0	1	0	1	199.237	0.357365	0.357062	-0.00166822	10	9.98751e-06	14	0	9.2646	-5.95659e-07
2	0	0	0	0	1	199.971	0.35	0.349705	-0.00360995	10	8.70018e-06	14	0	9.9986	-1.26242e-06