File: ACS_Catal_2026/Figures_Na_K/main_figures/data/EC/20251112_2-148_alpha_reproducibility/20251112_2-148_002_alpha_reproducibility_2_K1_02_PEIS_C02.mpt
EC-Lab ASCII FILE
Nb header lines : 63

Potentio Electrochemical Impedance Spectroscopy

Run on channel : 2 (SN 69290)
User :
CE vs. WE compliance from -10 V to 10 V
Electrode connection : standard
Potential control : Ewe
Ewe ctrl range : min = -1.00 V, max = 1.00 V
Safety Limits :
	Do not start on E overload
Acquisition started on : 11/12/2025 13:25:42.107
Loaded Setting File :  C:\Users\User\Documents\EC-Lab\Data\Yatsuzuka\20251112_2-148_alpha_reproducibility\20251112_2-148_002_alpha_reproducibility_2_K1.mps
Saved on :
	File : 20251112_2-148_002_alpha_reproducibility_2_K1_02_PEIS_C02.mpr
	Directory : C:\Users\User\Documents\EC-Lab\Data\Yatsuzuka\20251112_2-148_alpha_reproducibility\
	Host : 192.109.209.127
Device : SP-150e (SN .003883)
Address : 192.109.209.128
EC-LAB for windows v11.52 (software)
Internet server v11.52 (firmware)
Command interpretor v11.50 (firmware)
Electrode material :
Initial state :
Electrolyte :
Comments :
Electrode surface area : 0.001 cm2
Characteristic mass : 0.001 g
Equivalent Weight : 0.000 g/eq.
Density : 0.000 g/cm3
Volume (V) : 0.001 cm3
Cycle Definition : Charge/Discharge alternance
Mode                Single sine
E (V)               0.4500
vs.                 Ref
tE (h:m:s)          0:00:0.0000
record              0
dI                  0.000
unit dI             mA
dt (s)              0.000
fi                  500.000
unit fi             kHz
ff                  1.000
unit ff             Hz
Nd                  6
Points              per decade
spacing             Logarithmic
Va (mV)             10.0
pw                  0.10
Na                  2
corr                0
E range min (V)     -1.000
E range max (V)     1.000
I Range             Auto
Bandwidth           5
nc cycles           0
goto Ns'            0
nr cycles           0
inc. cycle          0

freq/Hz	Re(Z)/Ohm	-Im(Z)/Ohm	|Z|/Ohm	Phase(Z)/deg	time/s	<Ewe>/V	<I>/mA	Cs/uF	Cp/uF	cycle number	I Range	|Ewe|/V	|I|/A	Ns	(Q-Qo)/mA.h	Re(Y)/Ohm-1	Im(Y)/Ohm-1	|Y|/Ohm-1	Phase(Y)/deg	Re(C)/nF	Im(C)/nF	|C|/nF	Phase(C)/deg	Re(M)	Im(M)	|M|	Phase(M)/deg	Re(Permittivity)	Im(Permittivity)	|Permittivity|	Phase(Permittivity)/deg	Re(Resistivity)/Ohm.cm	Im(Resistivity)/Ohm.cm	|Resistivity|/Ohm.cm	Phase(Resistivity)/deg	Re(Conductivity)/mS/cm	Im(Conductivity)/mS/cm	|Conductivity|/mS/cm	Phase(Conductivity)/deg	Tan(Delta)	Loss Angle(Delta)/deg	dq/mA.h	Pwe/W	Rwe/Ohm
500019	11.3699	-2.44144	11.6291	12.119	201.614	0.449781	0.0236145	-0.130373	-0.0057463	1	10	0.00387752	0.000333433	0	3.46081e-05	0.0840748	-0.0180532	0.0859913	-12.119	-5.7463	26.7609	27.3709	-102.119	0.0000000E+000	0.0000000E+000	0.0000000E+000	102.119	0.0000000E+000	0.0000000E+000	0.0000000E+000	-102.119	0.0000000E+000	0.0000000E+000	0.0000000E+000	12.119	0.0000000E+000	0.0000000E+000	0.0000000E+000	-12.119	4.65706	77.881	3.46081e-05	1.06214e-05	19046.8
231063	6.28822	-0.632944	6.31999	5.74778	202.322	0.449539	0.0235046	-1.08824	-0.010915	1	10	0.0100272	0.00158659	0	3.96168e-05	0.157432	-0.0158465	0.158228	-5.74778	-10.915	108.439	108.987	-95.7478	0.0000000E+000	0.0000000E+000	0.0000000E+000	95.7478	0.0000000E+000	0.0000000E+000	0.0000000E+000	-95.7478	0.0000000E+000	0.0000000E+000	0.0000000E+000	5.74778	0.0000000E+000	0.0000000E+000	0.0000000E+000	-5.74778	9.93487	84.2522	2.7924e-06	1.05662e-05	19125.6
106786	5.78475	-0.0399486	5.78489	0.395669	203.166	0.449538	0.0240397	-37.3081	-0.00177916	1	10	0.0109863	0.00189914	0	3.86074e-05	0.17286	-0.00119374	0.172864	-0.395669	-1.77916	257.632	257.638	-90.3957	0.0000000E+000	0.0000000E+000	0.0000000E+000	90.3957	0.0000000E+000	0.0000000E+000	0.0000000E+000	-90.3957	0.0000000E+000	0.0000000E+000	0.0000000E+000	0.395669	0.0000000E+000	0.0000000E+000	0.0000000E+000	-0.395669	144.805	89.6043	1.87664e-06	1.08067e-05	18699.8
49352.4	5.79263	0.0379962	5.79276	-0.375821	204.01	0.449542	0.0232696	84.8734	0.00365159	1	10	0.0106448	0.0018376	0	4.5164e-05	0.172626	0.00113232	0.172629	0.375821	3.65162	556.695	556.707	-89.6242	0.0000000E+000	0.0000000E+000	0.0000000E+000	89.6242	0.0000000E+000	0.0000000E+000	0.0000000E+000	-89.6242	0.0000000E+000	0.0000000E+000	0.0000000E+000	-0.375821	0.0000000E+000	0.0000000E+000	0.0000000E+000	0.375821	152.453	89.6242	2.4493e-06	1.04607e-05	19318.8
22806.6	5.81444	0.0502074	5.81465	-0.494735	204.854	0.449544	0.0228389	138.993	0.0103629	1	10	0.0104856	0.0018033	0	5.22625e-05	0.171973	0.00148498	0.171979	0.494735	10.3629	1200.11	1200.15	-89.5053	0.0000000E+000	0.0000000E+000	0.0000000E+000	89.5053	0.0000000E+000	0.0000000E+000	0.0000000E+000	-89.5053	0.0000000E+000	0.0000000E+000	0.0000000E+000	-0.494735	0.0000000E+000	0.0000000E+000	0.0000000E+000	0.494735	115.808	89.5053	1.67204e-06	1.02671e-05	19683.2
10540.4	5.82928	0.046868	5.82947	-0.460654	205.698	0.449549	0.0219197	322.172	0.0208248	1	10	0.0103322	0.0017724	0	5.99802e-05	0.171537	0.00137917	0.171542	0.460654	20.8249	2590.12	2590.21	-89.5393	0.0000000E+000	0.0000000E+000	0.0000000E+000	89.5393	0.0000000E+000	0.0000000E+000	0.0000000E+000	-89.5393	0.0000000E+000	0.0000000E+000	0.0000000E+000	-0.460654	0.0000000E+000	0.0000000E+000	0.0000000E+000	0.460654	124.377	89.5393	1.57745e-06	9.85399e-06	20508.9
4871.56	5.85144	0.0534068	5.85168	-0.522931	206.91	0.449536	0.0178719	611.724	0.050955	1	10	0.0101422	0.00173321	0	6.32134e-05	0.170884	0.00155968	0.170891	0.522931	50.9553	5582.82	5583.05	-89.4771	0.0000000E+000	0.0000000E+000	0.0000000E+000	89.4771	0.0000000E+000	0.0000000E+000	0.0000000E+000	-89.4771	0.0000000E+000	0.0000000E+000	0.0000000E+000	-0.522931	0.0000000E+000	0.0000000E+000	0.0000000E+000	0.522931	109.564	89.4771	2.07887e-06	8.03404e-06	25153.3
2250.72	5.86245	0.0641351	5.8628	-0.62679	208.062	0.449542	0.0176891	1102.56	0.131942	1	10	0.0101642	0.00173368	0	7.04086e-05	0.170557	0.00186589	0.170567	0.62679	131.943	12060.6	12061.3	-89.3732	0.0000000E+000	0.0000000E+000	0.0000000E+000	89.3732	0.0000000E+000	0.0000000E+000	0.0000000E+000	-89.3732	0.0000000E+000	0.0000000E+000	0.0000000E+000	-0.62679	0.0000000E+000	0.0000000E+000	0.0000000E+000	0.62679	91.4078	89.3732	6.58846e-06	7.95201e-06	25413.5
1040.33	5.87923	0.104801	5.88017	-1.02123	208.992	0.449542	0.0178774	1459.76	0.463697	1	10	0.0104319	0.00177408	0	7.37237e-05	0.170036	0.003031	0.170063	1.02123	463.697	26012.9	26017.1	-88.9788	0.0000000E+000	0.0000000E+000	0.0000000E+000	88.9788	0.0000000E+000	0.0000000E+000	0.0000000E+000	-88.9788	0.0000000E+000	0.0000000E+000	0.0000000E+000	-1.02123	0.0000000E+000	0.0000000E+000	0.0000000E+000	1.02123	56.099	88.9788	1.2972e-06	8.03666e-06	25145.7
480.769	5.89305	0.195899	5.8963	-1.90395	209.922	0.449534	0.0166972	1689.86	1.86534	1	10	0.01049	0.00177908	0	7.85753e-05	0.169504	0.00563474	0.169598	1.90395	1865.34	56113.1	56144.1	-88.096	0.0000000E+000	0.0000000E+000	0.0000000E+000	88.096	0.0000000E+000	0.0000000E+000	0.0000000E+000	-88.096	0.0000000E+000	0.0000000E+000	0.0000000E+000	-1.90395	0.0000000E+000	0.0000000E+000	0.0000000E+000	1.90395	30.082	88.096	2.66567e-06	7.50596e-06	26922.7
222.061	5.92863	0.385462	5.94114	-3.71997	210.846	0.449533	0.0159719	1859.37	7.8269	1	10	0.0105134	0.00176959	0	8.35255e-05	0.167963	0.0109205	0.168318	3.71997	7826.9	120382	120636	-86.28	0.0000000E+000	0.0000000E+000	0.0000000E+000	86.28	0.0000000E+000	0.0000000E+000	0.0000000E+000	-86.28	0.0000000E+000	0.0000000E+000	0.0000000E+000	-3.71997	0.0000000E+000	0.0000000E+000	0.0000000E+000	3.71997	15.3806	86.28	3.49311e-06	7.1799e-06	28145.2
102.667	5.98509	0.761254	6.03331	-7.24863	211.783	0.449534	0.0174542	2036.38	32.4195	1	10	0.0105179	0.0017433	0	8.60499e-05	0.164422	0.0209131	0.165747	7.24863	32419.5	254887	256940	-82.7514	0.0000000E+000	0.0000000E+000	0.0000000E+000	82.7514	0.0000000E+000	0.0000000E+000	0.0000000E+000	-82.7514	0.0000000E+000	0.0000000E+000	0.0000000E+000	-7.24863	0.0000000E+000	0.0000000E+000	0.0000000E+000	7.24863	7.86214	82.7514	1.10925e-06	7.84626e-06	25755.1
47.4443	6.08836	1.5262	6.27673	-14.0726	212.694	0.449528	0.0152951	2197.99	129.951	1	10	0.010538	0.0016789	0	8.81733e-05	0.154537	0.0387385	0.159319	14.0726	129951	518404	534444	-75.9274	0.0000000E+000	0.0000000E+000	0.0000000E+000	75.9274	0.0000000E+000	0.0000000E+000	0.0000000E+000	-75.9274	0.0000000E+000	0.0000000E+000	0.0000000E+000	-14.0726	0.0000000E+000	0.0000000E+000	0.0000000E+000	14.0726	3.98923	75.9274	4.93911e-07	6.87557e-06	29390.3
21.9144	6.22981	3.0852	6.9519	-26.3461	213.56	0.449519	0.0137848	2354	463.624	1	10	0.0105456	0.00151694	0	8.81042e-05	0.128904	0.0638376	0.143845	26.3461	463624	936174	1.04469e+06	-63.6539	0.0000000E+000	0.0000000E+000	0.0000000E+000	63.6539	0.0000000E+000	0.0000000E+000	0.0000000E+000	-63.6539	0.0000000E+000	0.0000000E+000	0.0000000E+000	-26.3461	0.0000000E+000	0.0000000E+000	0.0000000E+000	26.3461	2.01925	63.6539	-1.73685e-06	6.19654e-06	32609.8
10.1329	6.42358	6.43204	9.0903	-45.0377	214.487	0.44953	0.0158842	2441.94	1222.58	1	10	0.0105619	0.00116188	0	9.95635e-05	0.0777357	0.0778382	0.110007	45.0377	1.22258e+06	1.22097e+06	1.72785e+06	-44.9623	0.0000000E+000	0.0000000E+000	0.0000000E+000	44.9623	0.0000000E+000	0.0000000E+000	0.0000000E+000	-44.9623	0.0000000E+000	0.0000000E+000	0.0000000E+000	-45.0377	0.0000000E+000	0.0000000E+000	0.0000000E+000	45.0377	0.998684	44.9623	9.39995e-06	7.14045e-06	28300.4
4.68375	6.7876	13.3981	15.0193	-63.1327	215.537	0.449551	0.00248884	2536.2	2018.22	1	11	0.0105765	0.000704196	0	9.06295e-05	0.0300896	0.059394	0.066581	63.1327	2.01822e+06	1.02245e+06	2.26244e+06	-26.8673	0.0000000E+000	0.0000000E+000	0.0000000E+000	26.8673	0.0000000E+000	0.0000000E+000	0.0000000E+000	-26.8673	0.0000000E+000	0.0000000E+000	0.0000000E+000	-63.1327	0.0000000E+000	0.0000000E+000	0.0000000E+000	63.1327	0.506611	26.8673	-9.7939e-06	1.11886e-06	180627
2.16533	7.48582	28.3254	29.2979	-75.1964	217.25	0.449561	0.00207138	2594.89	2425.49	1	11	0.0105741	0.000360917	0	0.000101493	0.00872099	0.0329992	0.0341321	75.1964	2.42549e+06	641006	2.50876e+06	-14.8036	0.0000000E+000	0.0000000E+000	0.0000000E+000	14.8036	0.0000000E+000	0.0000000E+000	0.0000000E+000	-14.8036	0.0000000E+000	0.0000000E+000	0.0000000E+000	-75.1964	0.0000000E+000	0.0000000E+000	0.0000000E+000	75.1964	0.264279	14.8036	8.92998e-06	9.31212e-07	217035
1.00006	9.00574	59.9187	60.5917	-81.4525	221.59	0.449558	0.00117486	2656.01	2597.34	1	12	0.0105809	0.000174626	0	9.82274e-05	0.00245298	0.0163206	0.0165039	81.4525	2.59734e+06	390378	2.62651e+06	-8.54754	0.0000000E+000	0.0000000E+000	0.0000000E+000	8.54754	0.0000000E+000	0.0000000E+000	0.0000000E+000	-8.54754	0.0000000E+000	0.0000000E+000	0.0000000E+000	-81.4525	0.0000000E+000	0.0000000E+000	0.0000000E+000	81.4525	0.150299	8.54755	-5.2282e-06	5.2817e-07	382647