File: ACS_Catal_2026/Figures_Na_K/main_figures/data/EC/20251112_2-148_alpha_reproducibility/20251112_2-148_001_alpha_reproducibility_1_Na2_02_PEIS_C01.mpt
EC-Lab ASCII FILE
Nb header lines : 63

Potentio Electrochemical Impedance Spectroscopy

Run on channel : 1 (SN 69187)
User :
CE vs. WE compliance from -10 V to 10 V
Electrode connection : standard
Potential control : Ewe
Ewe ctrl range : min = -1.00 V, max = 1.00 V
Safety Limits :
	Do not start on E overload
Acquisition started on : 11/12/2025 15:13:50.824
Loaded Setting File :  C:\Users\User\Documents\EC-Lab\Data\Yatsuzuka\20251030_2-147_gamma_reproducibility\20251030_2-147_001_gamma1_K_1.mps
Saved on :
	File : 20251112_2-148_001_alpha_reproducibility_1_Na2_02_PEIS_C01.mpr
	Directory : C:\Users\User\Documents\EC-Lab\Data\Yatsuzuka\20251112_2-148_alpha_reproducibility\
	Host : 192.109.209.127
Device : SP-150e (SN .003883)
Address : 192.109.209.128
EC-LAB for windows v11.52 (software)
Internet server v11.52 (firmware)
Command interpretor v11.50 (firmware)
Electrode material :
Initial state :
Electrolyte :
Comments :
Electrode surface area : 0.001 cm2
Characteristic mass : 0.001 g
Equivalent Weight : 0.000 g/eq.
Density : 0.000 g/cm3
Volume (V) : 0.001 cm3
Cycle Definition : Charge/Discharge alternance
Mode                Single sine
E (V)               0.4500
vs.                 Ref
tE (h:m:s)          0:00:0.0000
record              0
dI                  0.000
unit dI             mA
dt (s)              0.000
fi                  500.000
unit fi             kHz
ff                  1.000
unit ff             Hz
Nd                  6
Points              per decade
spacing             Logarithmic
Va (mV)             10.0
pw                  0.10
Na                  2
corr                0
E range min (V)     -1.000
E range max (V)     1.000
I Range             Auto
Bandwidth           5
nc cycles           0
goto Ns'            0
nr cycles           0
inc. cycle          0

freq/Hz	Re(Z)/Ohm	-Im(Z)/Ohm	|Z|/Ohm	Phase(Z)/deg	time/s	<Ewe>/V	<I>/mA	Cs/uF	Cp/uF	cycle number	I Range	|Ewe|/V	|I|/A	Ns	(Q-Qo)/mA.h	Re(Y)/Ohm-1	Im(Y)/Ohm-1	|Y|/Ohm-1	Phase(Y)/deg	Re(C)/nF	Im(C)/nF	|C|/nF	Phase(C)/deg	Re(M)	Im(M)	|M|	Phase(M)/deg	Re(Permittivity)	Im(Permittivity)	|Permittivity|	Phase(Permittivity)/deg	Re(Resistivity)/Ohm.cm	Im(Resistivity)/Ohm.cm	|Resistivity|/Ohm.cm	Phase(Resistivity)/deg	Re(Conductivity)/mS/cm	Im(Conductivity)/mS/cm	|Conductivity|/mS/cm	Phase(Conductivity)/deg	Tan(Delta)	Loss Angle(Delta)/deg	dq/mA.h	Pwe/W	Rwe/Ohm
500019	17.4776	-1.96374	17.5876	6.41072	201.599	0.450133	0.0106155	-0.162088	-0.00202072	1	10	0.0058099	0.000330341	0	2.15588e-05	0.0565028	-0.00634851	0.0568584	-6.41072	-2.02072	17.9847	18.0979	-96.4107	0.0000000E+000	0.0000000E+000	0.0000000E+000	96.4107	0.0000000E+000	0.0000000E+000	0.0000000E+000	-96.4107	0.0000000E+000	0.0000000E+000	0.0000000E+000	6.41072	0.0000000E+000	0.0000000E+000	0.0000000E+000	-6.41072	8.90016	83.5893	2.15588e-05	4.77839e-06	42403.3
231063	10.7273	-0.697683	10.75	3.72117	202.308	0.449796	0.0127082	-0.987262	-0.00415848	1	10	0.0106674	0.000992319	0	2.58201e-05	0.0928275	-0.00603732	0.0930236	-3.72117	-4.15848	63.9392	64.0742	-93.7212	0.0000000E+000	0.0000000E+000	0.0000000E+000	93.7212	0.0000000E+000	0.0000000E+000	0.0000000E+000	-93.7212	0.0000000E+000	0.0000000E+000	0.0000000E+000	3.72117	0.0000000E+000	0.0000000E+000	0.0000000E+000	-3.72117	15.3756	86.2788	3.05566e-06	5.71609e-06	35394.2
106786	9.86544	-0.092042	9.86587	0.534539	203.288	0.449754	0.0143145	-16.1927	-0.00140935	1	10	0.0108339	0.00109812	0	2.67858e-05	0.101355	-0.000945617	0.10136	-0.534539	-1.40935	151.06	151.067	-90.5345	0.0000000E+000	0.0000000E+000	0.0000000E+000	90.5345	0.0000000E+000	0.0000000E+000	0.0000000E+000	-90.5345	0.0000000E+000	0.0000000E+000	0.0000000E+000	0.534539	0.0000000E+000	0.0000000E+000	0.0000000E+000	-0.534539	107.184	89.4655	-5.73272e-07	6.43799e-06	31419.5
49352.4	9.80437	0.0308627	9.80441	-0.180358	204.132	0.449762	0.0127082	104.491	0.00103539	1	10	0.0105959	0.00108072	0	3.02382e-05	0.101994	0.000321063	0.101995	0.180358	1.03539	328.919	328.92	-89.8196	0.0000000E+000	0.0000000E+000	0.0000000E+000	89.8196	0.0000000E+000	0.0000000E+000	0.0000000E+000	-89.8196	0.0000000E+000	0.0000000E+000	0.0000000E+000	-0.180358	0.0000000E+000	0.0000000E+000	0.0000000E+000	0.180358	317.677	89.8196	1.39355e-06	5.71565e-06	35391.5
22806.6	9.82576	0.0531305	9.8259	-0.309811	204.976	0.449754	0.00939125	131.346	0.00384025	1	10	0.0104372	0.00106221	0	3.24983e-05	0.10177	0.000550299	0.101772	0.309811	3.8402	710.201	710.212	-89.6902	0.0000000E+000	0.0000000E+000	0.0000000E+000	89.6902	0.0000000E+000	0.0000000E+000	0.0000000E+000	-89.6902	0.0000000E+000	0.0000000E+000	0.0000000E+000	-0.309811	0.0000000E+000	0.0000000E+000	0.0000000E+000	0.309811	184.936	89.6902	4.82169e-08	4.22375e-06	47890.7
10540.4	9.82718	0.0492524	9.8273	-0.287156	205.821	0.449761	0.0122256	306.575	0.00770057	1	10	0.010224	0.00104037	0	3.76668e-05	0.101756	0.000509987	0.101757	0.287156	7.70055	1536.47	1536.49	-89.7128	0.0000000E+000	0.0000000E+000	0.0000000E+000	89.7128	0.0000000E+000	0.0000000E+000	0.0000000E+000	-89.7128	0.0000000E+000	0.0000000E+000	0.0000000E+000	-0.287156	0.0000000E+000	0.0000000E+000	0.0000000E+000	0.287156	199.527	89.7128	2.2652e-06	5.49857e-06	36788.6
4871.56	9.86789	0.0556569	9.86804	-0.323157	206.812	0.449766	0.0136511	586.993	0.0186728	1	10	0.0107806	0.00109247	0	4.09521e-05	0.101336	0.000571554	0.101337	0.323157	18.6729	3310.66	3310.71	-89.6768	0.0000000E+000	0.0000000E+000	0.0000000E+000	89.6768	0.0000000E+000	0.0000000E+000	0.0000000E+000	-89.6768	0.0000000E+000	0.0000000E+000	0.0000000E+000	-0.323157	0.0000000E+000	0.0000000E+000	0.0000000E+000	0.323157	177.298	89.6768	2.12475e-06	6.13979e-06	32947.2
2250.72	9.87474	0.0685395	9.87498	-0.397678	207.964	0.44976	0.0116982	1031.71	0.0497013	1	10	0.0102474	0.00103771	0	4.50332e-05	0.101264	0.00070286	0.101266	0.397678	49.7009	7160.64	7160.81	-89.6023	0.0000000E+000	0.0000000E+000	0.0000000E+000	89.6023	0.0000000E+000	0.0000000E+000	0.0000000E+000	-89.6023	0.0000000E+000	0.0000000E+000	0.0000000E+000	-0.397678	0.0000000E+000	0.0000000E+000	0.0000000E+000	0.397678	144.074	89.6023	1.25612e-06	5.26138e-06	38447
1040.33	9.89981	0.114618	9.90047	-0.663329	208.894	0.449764	0.012643	1334.74	0.178891	1	10	0.0103561	0.00104602	0	4.75651e-05	0.100999	0.00116934	0.101005	0.663329	178.891	15451.2	15452.3	-89.3367	0.0000000E+000	0.0000000E+000	0.0000000E+000	89.3367	0.0000000E+000	0.0000000E+000	0.0000000E+000	-89.3367	0.0000000E+000	0.0000000E+000	0.0000000E+000	-0.663329	0.0000000E+000	0.0000000E+000	0.0000000E+000	0.663329	86.3722	89.3367	1.59597e-06	5.68635e-06	35574.2
480.769	9.90459	0.201616	9.90664	-1.16614	209.824	0.449754	0.0120802	1641.94	0.680074	1	10	0.010377	0.00104747	0	5.01558e-05	0.100921	0.00205434	0.100942	1.16614	680.075	33409.3	33416.2	-88.8339	0.0000000E+000	0.0000000E+000	0.0000000E+000	88.8339	0.0000000E+000	0.0000000E+000	0.0000000E+000	-88.8339	0.0000000E+000	0.0000000E+000	0.0000000E+000	-1.16614	0.0000000E+000	0.0000000E+000	0.0000000E+000	1.16614	49.1259	88.8339	1.34352e-06	5.43311e-06	37230.6
222.061	9.91812	0.414578	9.92678	-2.39357	210.748	0.449762	0.0106901	1728.79	3.01535	1	10	0.0103824	0.0010459	0	5.3558e-05	0.10065	0.00420716	0.100738	2.39357	3015.35	72137.5	72200.5	-87.6064	0.0000000E+000	0.0000000E+000	0.0000000E+000	87.6064	0.0000000E+000	0.0000000E+000	0.0000000E+000	-87.6064	0.0000000E+000	0.0000000E+000	0.0000000E+000	-2.39357	0.0000000E+000	0.0000000E+000	0.0000000E+000	2.39357	23.9234	87.6064	2.52409e-06	4.80799e-06	42072.9
102.667	9.96171	0.852098	9.99809	-4.88903	211.685	0.449764	0.0122311	1819.28	13.2143	1	10	0.01039	0.0010392	0	5.55031e-05	0.0996552	0.00852424	0.100019	4.88903	13214.3	154486	155050	-85.111	0.0000000E+000	0.0000000E+000	0.0000000E+000	85.111	0.0000000E+000	0.0000000E+000	0.0000000E+000	-85.111	0.0000000E+000	0.0000000E+000	0.0000000E+000	-4.88903	0.0000000E+000	0.0000000E+000	0.0000000E+000	4.88903	11.6908	85.111	9.84254e-07	5.50113e-06	36772
47.4443	10.0374	1.77995	10.194	-10.0558	212.597	0.449756	0.00958878	1884.64	57.4582	1	10	0.0103982	0.00102003	0	5.77333e-05	0.0965898	0.0171284	0.0980967	10.0558	57458.2	324016	329072	-79.9442	0.0000000E+000	0.0000000E+000	0.0000000E+000	79.9442	0.0000000E+000	0.0000000E+000	0.0000000E+000	-79.9442	0.0000000E+000	0.0000000E+000	0.0000000E+000	-10.0558	0.0000000E+000	0.0000000E+000	0.0000000E+000	10.0558	5.63917	79.9442	7.09997e-07	4.31261e-06	46904.4
21.9144	10.1564	3.70275	10.8103	-20.0305	213.465	0.449742	0.0108373	1961.4	230.112	1	10	0.0104029	0.000962316	0	5.82639e-05	0.0869089	0.0316847	0.0925044	20.0305	230112	631181	671819	-69.9695	0.0000000E+000	0.0000000E+000	0.0000000E+000	69.9695	0.0000000E+000	0.0000000E+000	0.0000000E+000	-69.9695	0.0000000E+000	0.0000000E+000	0.0000000E+000	-20.0305	0.0000000E+000	0.0000000E+000	0.0000000E+000	20.0305	2.74293	69.9695	-1.64178e-07	4.87398e-06	41499.5
10.1329	10.3939	7.70963	12.9411	-36.566	214.642	0.449759	4.63752e-05	2037.28	723.062	1	11	0.0104221	0.000805352	0	6.15786e-05	0.0620636	0.0460353	0.0772732	36.566	723062	974814	1.21371e+06	-53.434	0.0000000E+000	0.0000000E+000	0.0000000E+000	53.434	0.0000000E+000	0.0000000E+000	0.0000000E+000	-53.434	0.0000000E+000	0.0000000E+000	0.0000000E+000	-36.566	0.0000000E+000	0.0000000E+000	0.0000000E+000	36.566	1.34817	53.434	1.40591e-06	2.08577e-08	9.69827e+06
4.68375	10.8372	16.14	19.4408	-56.1206	215.492	0.449763	0.00107586	2105.34	1451.11	1	11	0.0104161	0.000535783	0	5.94504e-05	0.028674	0.0427046	0.0514381	56.1206	1.45111e+06	974348	1.74788e+06	-33.8794	0.0000000E+000	0.0000000E+000	0.0000000E+000	33.8794	0.0000000E+000	0.0000000E+000	0.0000000E+000	-33.8794	0.0000000E+000	0.0000000E+000	0.0000000E+000	-56.1206	0.0000000E+000	0.0000000E+000	0.0000000E+000	56.1206	0.671449	33.8794	-7.3763e-06	4.83883e-07	418048
2.16533	11.7274	34.1229	36.0819	-71.0332	217.208	0.449773	0.00112068	2154.03	1926.48	1	11	0.0104244	0.000288911	0	6.95994e-05	0.00900788	0.02621	0.0277148	71.0332	1.92648e+06	662093	2.03708e+06	-18.9669	0.0000000E+000	0.0000000E+000	0.0000000E+000	18.9669	0.0000000E+000	0.0000000E+000	0.0000000E+000	-18.9669	0.0000000E+000	0.0000000E+000	0.0000000E+000	-71.0332	0.0000000E+000	0.0000000E+000	0.0000000E+000	71.0332	0.343681	18.9669	5.47721e-06	5.04049e-07	401341
1.00006	13.3891	72.3589	73.5873	-79.5167	221.548	0.449773	0.000262184	2199.38	2126.57	1	12	0.0104306	0.000141745	0	6.21403e-05	0.00247255	0.0133625	0.0135893	79.5167	2.12657e+06	393493	2.16267e+06	-10.4833	0.0000000E+000	0.0000000E+000	0.0000000E+000	10.4833	0.0000000E+000	0.0000000E+000	0.0000000E+000	-10.4833	0.0000000E+000	0.0000000E+000	0.0000000E+000	-79.5167	0.0000000E+000	0.0000000E+000	0.0000000E+000	79.5167	0.185037	10.4832	-5.00343e-06	1.17923e-07	1.71548e+06