File: ACS_Catal_2026/Figures_Na_K/main_figures/data/EC/20251112_2-148_alpha_reproducibility/20251112_2-148_004_Na_first_2_Na1_01_CVA_C02.mpt
EC-Lab ASCII FILE
Nb header lines : 66

Cyclic Voltammetry Advanced

Run on channel : 2 (SN 69290)
User :
CE vs. WE compliance from -10 V to 10 V
Electrode connection : standard
Potential control : Ewe
Ewe ctrl range : min = -1.00 V, max = 1.00 V
Safety Limits :
	Do not start on E overload
Acquisition started on : 11/12/2025 15:49:31.265
Loaded Setting File :  C:\Users\User\Documents\EC-Lab\Data\Yatsuzuka\20251112_2-148_alpha_reproducibility\20251112_2-148_002_alpha_reproducibility_2_K1.mps
Saved on :
	File : 20251112_2-148_004_Na_first_2_Na1_01_CVA_C02.mpr
	Directory : C:\Users\User\Documents\EC-Lab\Data\Yatsuzuka\20251112_2-148_alpha_reproducibility\
	Host : 192.109.209.127
Device : SP-150e (SN .003883)
Address : 192.109.209.128
EC-Lab for windows v11.52 (software)
Internet server v11.52 (firmware)
Command interpretor v11.50 (firmware)
Electrode material :
Initial state :
Electrolyte :
Comments :
Electrode surface area : 0.001 cm2
Characteristic mass : 0.001 g
Equivalent Weight : 0.000 g/eq.
Density : 0.000 g/cm3
Volume (V) : 0.001 cm3
Cycle Definition : Charge/Discharge alternance
Ei (V)              0.350
vs.                 Ref
ti (h:m:s)          0:00:10.0000
dti (s)             0.0000
dE/dt               10.000
dE/dt unit          mV/s
E1 (V)              0.450
vs.                 Ref
t1 (h:m:s)          0:00:0.0000
dt1 (s)             0.1000
Step percent        50
N                   10
E range min (V)     -1.000
E range max (V)     1.000
I Range             Auto
I Range min         Unset
I Range max         Unset
I Range init        Unset
Bandwidth           5
E2 (V)              0.350
vs.                 Ref
t2 (h:m:s)          0:00:0.0000
dt2 (s)             0.1000
nc cycles           9
nr                  1
Reverse Scan        0
Ef (V)              0.000
vs.                 Eoc
tf (h:m:s)          0:00:0.0000
dtf (s)             0.1000

mode	ox/red	error	control changes	Ns changes	counter inc.	time/s	control/V	Ewe/V	<I>/mA	cycle number	(Q-Qo)/C	I Range	Ns	step time/s	P/W
2	1	1	1	0	0	0.000000000000000E+000	0.349989	0.349459	0.0189172	1	0.0000000E+000	13	0	0.000000000000000E+000	6.61079e-06
2	1	0	1	0	0	1.7555	0.367543	0.367048	0.0755237	1	0.000129618	12	0	1.713	2.77208e-05
2	1	0	1	0	0	3.5035	0.385022	0.384508	0.0739667	1	0.000268625	12	0	3.461	2.84408e-05
2	1	0	1	0	0	5.2513	0.402502	0.402042	0.078694	1	0.000413868	12	0	5.2088	3.16383e-05
2	1	0	1	0	0	6.9993	0.419981	0.419478	0.0860345	1	0.000563194	12	0	6.9568	3.60896e-05
2	1	0	1	0	0	8.7472	0.437459	0.436982	0.0943102	1	0.000715703	12	0	8.7047	4.12119e-05
2	1	0	1	0	0	10.4559	0.445451	0.444933	0.00539962	1	0.000836111	13	0	10.4134	2.40247e-06
2	1	0	1	0	0	12.2039	0.427972	0.427481	-0.0118512	1	0.000836597	13	0	0.7991	-5.06617e-06
2	0	0	1	0	0	13.9517	0.410492	0.410001	-0.0183157	1	0.000810479	13	0	2.5469	-7.50946e-06
2	0	0	1	0	0	15.6997	0.393013	0.392495	-0.021405	1	0.000768497	13	0	4.2949	-8.40136e-06
2	0	0	1	0	0	17.4477	0.375534	0.374991	-0.0246684	1	0.000714717	13	0	6.0429	-9.25043e-06
2	0	0	1	0	0	19.1955	0.358054	0.357527	-0.0330653	1	0.000650965	13	0	7.7907	-1.18217e-05
2	1	0	1	0	1	20.8901	0.358903	0.358455	0.0568486	2	0.000657345	13	0	0.844	2.03777e-05
2	1	0	1	0	1	22.6381	0.376383	0.375935	0.0584594	2	0.000743546	13	0	2.592	2.19769e-05
2	1	0	1	0	1	24.386	0.393862	0.393368	0.0478572	2	0.000830026	13	0	4.3399	1.88255e-05
2	1	0	1	0	1	26.1339	0.411341	0.41082	0.041583	2	0.000917232	13	0	6.0878	1.70831e-05
2	1	0	1	0	1	27.8819	0.428821	0.428333	0.0442482	2	0.00100736	13	0	7.8358	1.8953e-05
2	1	0	1	0	1	29.6298	0.446301	0.445823	0.0501104	2	0.00110284	13	0	9.5837	2.23403e-05
2	0	0	1	0	1	31.3834	0.436162	0.435602	-0.0247137	2	0.00111055	13	0	1.2435	-1.07653e-05
2	0	0	1	0	1	33.1313	0.418683	0.418142	-0.0324733	2	0.00107431	13	0	2.9914	-1.35784e-05
2	0	0	1	0	1	34.8793	0.401203	0.400738	-0.0379222	2	0.00102713	13	0	4.7394	-1.51969e-05
2	0	0	1	0	1	36.6272	0.383724	0.383218	-0.0430401	2	0.000971274	13	0	6.4873	-1.64938e-05
2	0	0	1	0	1	38.3751	0.366245	0.365729	-0.0470613	2	0.000907513	13	0	8.2352	-1.72117e-05
2	0	0	1	0	0	40.0447	0.350463	0.349993	0.017012	3	0.000841575	13	0	0.000000000000000E+000	5.95408e-06
2	1	0	1	0	0	41.8376	0.368392	0.367916	0.0545224	3	0.000919984	13	0	1.7929	2.00597e-05
2	1	0	1	0	0	43.5855	0.385871	0.385415	0.0533944	3	0.000998432	13	0	3.5408	2.0579e-05
2	1	0	1	0	0	45.3335	0.403351	0.402861	0.0526977	3	0.0010761	13	0	5.2888	2.12299e-05
2	1	0	1	0	0	47.0814	0.42083	0.42035	0.0529314	3	0.00115389	13	0	7.0367	2.22497e-05
2	1	0	1	0	0	48.8293	0.438309	0.437834	0.0492193	3	0.00123401	13	0	8.7846	2.15499e-05
2	1	0	1	0	0	50.5829	0.444152	0.443636	-0.0233606	3	0.00128224	13	0	0.5094	-1.03636e-05
2	0	0	1	0	0	52.3309	0.426673	0.426127	-0.0335215	3	0.00124559	13	0	2.2574	-1.42844e-05
2	0	0	1	0	0	54.0788	0.409195	0.408643	-0.0345752	3	0.00119857	13	0	4.0053	-1.41289e-05
2	0	0	1	0	0	55.8267	0.391715	0.391171	-0.0406501	3	0.00114392	13	0	5.7532	-1.59011e-05
2	0	0	1	0	0	57.5747	0.374235	0.37376	-0.0307028	3	0.00108219	13	0	7.5012	-1.14755e-05
2	0	0	1	0	0	59.3226	0.356756	0.356297	-0.0373844	3	0.00101331	13	0	9.2491	-1.33199e-05
2	1	0	1	0	1	61.0371	0.360402	0.359901	0.0430483	4	0.00102459	13	0	0.9288	1.54931e-05
2	1	0	1	0	1	62.7851	0.377881	0.377369	0.0423449	4	0.00109993	13	0	2.6768	1.59797e-05
2	1	0	1	0	1	64.533	0.39536	0.394851	0.041915	4	0.00117386	13	0	4.4247	1.65502e-05
2	1	0	1	0	1	66.2809	0.41284	0.412305	0.0427433	4	0.00124678	13	0	6.1726	1.76233e-05
2	1	0	1	0	1	68.0289	0.430319	0.429817	0.0400174	4	0.0013201	13	0	7.9206	1.72001e-05
2	1	0	1	0	1	69.7768	0.447798	0.447303	0.0422858	4	0.00139579	13	0	9.6685	1.89146e-05
2	0	0	1	0	1	71.5305	0.434664	0.434125	-0.0236487	4	0.00137787	13	0	1.4584	-1.02665e-05
2	0	0	1	0	1	73.2783	0.417184	0.416606	-0.0291299	4	0.00133243	13	0	3.2062	-1.21357e-05
2	0	0	1	0	1	75.0263	0.399705	0.399155	-0.0307135	4	0.00127971	13	0	4.9542	-1.22595e-05
2	0	0	1	0	1	76.7742	0.382227	0.381682	-0.031794	4	0.00122042	13	0	6.7021	-1.21352e-05
2	0	0	1	0	1	78.5221	0.364747	0.36426	-0.0329463	4	0.00115463	13	0	8.45	-1.2001e-05
2	1	0	1	0	0	80.1768	0.351813	0.351349	0.0343619	5	0.00109814	13	0	0.0999	1.2073e-05
2	1	0	1	0	0	81.9247	0.369291	0.368806	0.0425672	5	0.00117066	13	0	1.8478	1.5699e-05
2	1	0	1	0	0	83.6727	0.38677	0.3863	0.0466534	5	0.00124306	13	0	3.5958	1.80222e-05
2	1	0	1	0	0	85.4205	0.40425	0.403788	0.0466951	5	0.00131382	13	0	5.3436	1.8855e-05
2	1	0	1	0	0	87.1685	0.421729	0.421254	0.0483944	5	0.00138366	13	0	7.0916	2.03864e-05
2	1	0	1	0	0	88.9164	0.439208	0.438692	0.0474759	5	0.00145426	13	0	8.8395	2.08273e-05
2	0	0	1	0	0	90.6301	0.443653	0.443148	-0.0265307	5	0.00148958	13	0	0.5294	-1.1757e-05
2	0	0	1	0	0	92.3781	0.426174	0.42565	-0.02932	5	0.00144722	13	0	2.2774	-1.24801e-05
2	0	0	1	0	0	94.1259	0.408694	0.408173	-0.0298796	5	0.00139699	13	0	4.0252	-1.21961e-05
2	0	0	1	0	0	95.8739	0.391215	0.39073	-0.0315974	5	0.00134067	13	0	5.7732	-1.2346e-05
2	0	0	1	0	0	97.6218	0.373737	0.373253	-0.0310588	5	0.00127822	13	0	7.5211	-1.15928e-05
2	0	0	1	0	0	99.3697	0.356257	0.355735	-0.0320361	5	0.00120918	13	0	9.269	-1.13963e-05
2	1	0	1	0	1	101.084	0.360901	0.36046	0.032757	6	0.001224	13	0	1.0588	1.18076e-05
2	1	0	1	0	1	102.832	0.37838	0.377903	0.0411025	6	0.00129577	13	0	2.8068	1.55328e-05
2	1	0	1	0	1	104.58	0.39586	0.395407	0.0397408	6	0.0013654	13	0	4.5546	1.57138e-05
2	1	0	1	0	1	106.328	0.413339	0.412829	0.0443475	6	0.00143366	13	0	6.3026	1.83079e-05
2	1	0	1	0	1	108.076	0.430818	0.430312	0.0305212	6	0.00150137	13	0	8.0505	1.31336e-05
2	1	0	1	0	1	109.824	0.448297	0.447822	0.0433838	6	0.00157026	13	0	9.7984	1.94282e-05
2	0	0	1	0	1	111.578	0.434163	0.433617	-0.0160502	6	0.00154419	13	0	1.4783	-6.95963e-06
2	0	0	1	0	1	113.325	0.416685	0.416115	-0.0267722	6	0.00149641	13	0	3.2262	-1.11403e-05
2	0	0	1	0	1	115.073	0.399206	0.398662	-0.0411375	6	0.00144238	13	0	4.9742	-1.64e-05
2	0	0	1	0	1	116.821	0.381726	0.381217	-0.0400456	6	0.00138248	13	0	6.722	-1.52661e-05
2	0	0	1	0	1	118.569	0.364247	0.363761	-0.0332516	6	0.00131657	13	0	8.47	-1.20956e-05
2	1	0	1	0	0	120.254	0.352611	0.352138	0.0471865	7	0.00126537	12	0	0.2298	1.66162e-05
2	1	0	1	0	0	122.032	0.370391	0.369909	0.0502269	7	0.00133676	13	0	2.0077	1.85794e-05
2	1	0	1	0	0	123.78	0.387869	0.3874	0.0348999	7	0.00140636	13	0	3.7556	1.35202e-05
2	1	0	1	0	0	125.528	0.405348	0.404879	0.0455715	7	0.00147374	13	0	5.5036	1.8451e-05
2	1	0	1	0	0	127.275	0.422828	0.422348	0.0322455	7	0.00154005	13	0	7.2514	1.36188e-05
2	1	0	1	0	0	129.023	0.440307	0.439792	0.0296992	7	0.00160633	13	0	8.9994	1.30615e-05
2	0	0	1	0	0	130.777	0.442155	0.441594	-0.0318586	7	0.00162903	13	0	0.6792	-1.40686e-05
2	0	0	1	0	0	132.525	0.424675	0.424142	-0.0356033	7	0.00158392	13	0	2.4272	-1.51009e-05
2	0	0	1	0	0	134.273	0.407196	0.406728	-0.0341148	7	0.00153223	13	0	4.1751	-1.38754e-05
2	0	0	1	0	0	136.021	0.389717	0.389231	-0.0309351	7	0.001475	13	0	5.923	-1.20409e-05
2	0	0	1	0	0	137.769	0.372238	0.37172	-0.0298719	7	0.00141209	13	0	7.671	-1.1104e-05
2	0	0	1	0	0	139.517	0.354758	0.354255	-0.0326792	7	0.0013428	13	0	9.4188	-1.15768e-05
2	1	0	1	0	1	141.231	0.362399	0.361935	0.0332892	8	0.00136803	13	0	1.2086	1.20485e-05
2	1	0	1	0	1	142.979	0.379879	0.379454	0.0350997	8	0.00143751	13	0	2.9566	1.33187e-05
2	1	0	1	0	1	144.727	0.397359	0.39692	0.0342877	8	0.00150487	13	0	4.7045	1.36095e-05
2	1	0	1	0	1	146.475	0.414837	0.41434	0.0330828	8	0.00157033	13	0	6.4524	1.37075e-05
2	1	0	1	0	1	148.223	0.432316	0.431836	0.0352316	8	0.00163512	13	0	8.2004	1.52143e-05
2	1	0	1	0	1	149.968	0.449771	0.449267	0.0482599	8	0.00170057	13	0	9.9457	2.16816e-05
2	0	0	1	0	1	151.725	0.432666	0.432097	-0.032403	8	0.00166159	13	0	1.693	-1.40012e-05
2	0	0	1	0	1	153.472	0.415187	0.414609	-0.0242144	8	0.0016122	13	0	3.4409	-1.00395e-05
2	0	0	1	0	1	155.22	0.397707	0.397229	-0.0403	8	0.00155751	13	0	5.1889	-1.60083e-05
2	0	0	1	0	1	156.968	0.380228	0.37975	-0.0313269	8	0.0014973	13	0	6.9368	-1.18964e-05
2	0	0	1	0	1	158.716	0.362749	0.362224	-0.0357517	8	0.00143128	13	0	8.6847	-1.29501e-05
2	1	0	1	0	0	160.431	0.354409	0.354007	0.0416223	9	0.00139397	13	0	0.3446	1.47346e-05
2	1	0	1	0	0	162.179	0.371888	0.371457	0.0489144	9	0.0014631	13	0	2.0925	1.81696e-05
2	1	0	1	0	0	163.927	0.389367	0.3889	0.0466383	9	0.00153071	13	0	3.8404	1.81376e-05
2	1	0	1	0	0	165.675	0.406847	0.406354	0.0435578	9	0.00159614	13	0	5.5884	1.76999e-05
2	1	0	1	0	0	167.423	0.424327	0.423817	0.038747	9	0.00166008	13	0	7.3363	1.64216e-05
2	1	0	1	0	0	169.17	0.441805	0.441263	0.0302639	9	0.00172387	13	0	9.0842	1.33543e-05
2	0	0	1	0	0	170.924	0.440657	0.440099	-0.0332044	9	0.00173508	13	0	0.829	-1.46132e-05
2	0	0	1	0	0	172.672	0.423177	0.422661	-0.0318659	9	0.00168851	13	0	2.577	-1.34685e-05
2	0	0	1	0	0	174.42	0.405698	0.405209	-0.0301915	9	0.00163617	13	0	4.3249	-1.22339e-05
2	0	0	1	0	0	176.168	0.388219	0.387692	-0.0268513	9	0.00157859	13	0	6.0728	-1.041e-05
2	0	0	1	0	0	177.916	0.370739	0.370234	-0.0295193	9	0.00151553	13	0	7.8208	-1.0929e-05
2	0	0	1	0	0	179.664	0.35326	0.352718	-0.0428237	9	0.00144613	13	0	9.5687	-1.51047e-05
2	1	0	1	0	1	181.378	0.363897	0.363434	0.0474245	10	0.00148368	13	0	1.2934	1.72357e-05
2	1	0	1	0	1	183.126	0.381377	0.380908	0.0326452	10	0.00155169	13	0	3.0414	1.24348e-05
2	1	0	1	0	1	184.874	0.398856	0.39835	0.0282358	10	0.00161723	13	0	4.7893	1.12478e-05
2	1	0	1	0	1	186.622	0.416335	0.415862	0.0294756	10	0.00168083	13	0	6.5372	1.22578e-05
2	1	0	1	0	1	188.37	0.433815	0.433334	0.0345215	10	0.00174359	13	0	8.2852	1.49593e-05
2	0	0	1	0	1	190.094	0.448947	0.448417	-0.018207	10	0.00180143	12	0	0.0649	-8.16432e-06
2	0	0	1	0	1	191.872	0.431169	0.430616	-0.0197408	10	0.00175745	13	0	1.8428	-8.50073e-06
2	0	0	1	0	1	193.619	0.413688	0.413162	-0.0383505	10	0.00170743	13	0	3.5907	-1.5845e-05
2	0	0	1	0	1	195.367	0.396209	0.395736	-0.0331917	10	0.00165222	13	0	5.3387	-1.31352e-05
2	0	0	1	0	1	197.115	0.37873	0.37825	-0.0316029	10	0.00159184	13	0	7.0866	-1.19538e-05
2	0	0	1	0	1	198.863	0.361251	0.360731	-0.0455554	10	0.00152558	13	0	8.8345	-1.64332e-05
2	0	0	0	0	1	199.986	0.349989	0.349382	-0.02931	10	0.00147935	13	0	9.9572	-1.02404e-05