File: ACS_Catal_2026/Figures_Na_K/main_figures/data/EC/20251112_2-148_alpha_reproducibility/20251112_2-148_003_alpha_Na_first_1_Na2_01_CVA_C01.mpt
EC-Lab ASCII FILE
Nb header lines : 66

Cyclic Voltammetry Advanced

Run on channel : 1 (SN 69187)
User :
CE vs. WE compliance from -10 V to 10 V
Electrode connection : standard
Potential control : Ewe
Ewe ctrl range : min = -1.00 V, max = 1.00 V
Safety Limits :
	Do not start on E overload
Acquisition started on : 11/12/2025 17:08:42.026
Loaded Setting File :  C:\Users\User\Documents\EC-Lab\Data\Yatsuzuka\20251030_2-147_gamma_reproducibility\20251030_2-147_001_gamma1_K_1.mps
Saved on :
	File : 20251112_2-148_003_alpha_Na_first_1_Na2_01_CVA_C01.mpr
	Directory : C:\Users\User\Documents\EC-Lab\Data\Yatsuzuka\20251112_2-148_alpha_reproducibility\
	Host : 192.109.209.127
Device : SP-150e (SN .003883)
Address : 192.109.209.128
EC-Lab for windows v11.52 (software)
Internet server v11.52 (firmware)
Command interpretor v11.50 (firmware)
Electrode material :
Initial state :
Electrolyte :
Comments :
Electrode surface area : 0.001 cm2
Characteristic mass : 0.001 g
Equivalent Weight : 0.000 g/eq.
Density : 0.000 g/cm3
Volume (V) : 0.001 cm3
Cycle Definition : Charge/Discharge alternance
Ei (V)              0.350
vs.                 Ref
ti (h:m:s)          0:00:10.0000
dti (s)             0.0000
dE/dt               10.000
dE/dt unit          mV/s
E1 (V)              0.450
vs.                 Ref
t1 (h:m:s)          0:00:0.0000
dt1 (s)             0.1000
Step percent        50
N                   10
E range min (V)     -1.000
E range max (V)     1.000
I Range             Auto
I Range min         Unset
I Range max         Unset
I Range init        Unset
Bandwidth           5
E2 (V)              0.350
vs.                 Ref
t2 (h:m:s)          0:00:0.0000
dt2 (s)             0.1000
nc cycles           9
nr                  1
Reverse Scan        0
Ef (V)              0.000
vs.                 Eoc
tf (h:m:s)          0:00:0.0000
dtf (s)             0.1000

mode	ox/red	error	control changes	Ns changes	counter inc.	time/s	control/V	Ewe/V	<I>/mA	cycle number	(Q-Qo)/C	I Range	Ns	step time/s	P/W
2	0	0	0	0	0	0.000000000000000E+000	0.34995	0.349838	-0.00198532	1	0.0000000E+000	13	0	0.000000000000000E+000	-6.94539e-07
2	1	0	1	0	0	1.725	0.3672	0.366942	0.0383497	1	5.4274e-05	13	0	1.6977	1.40721e-05
2	1	0	1	0	0	3.4726	0.384677	0.384419	0.0356372	1	0.000108739	13	0	3.4453	1.36996e-05
2	1	0	1	0	0	5.2201	0.402152	0.401916	0.0297997	1	0.000160262	13	0	5.1928	1.1977e-05
2	1	0	1	0	0	6.9677	0.419628	0.419414	0.0227855	1	0.00020907	13	0	6.9404	9.55657e-06
2	1	0	1	0	0	8.7153	0.437104	0.436878	0.0207515	1	0.000255461	13	0	8.688	9.06589e-06
2	0	0	1	0	0	10.4397	0.445642	0.445417	-0.0156632	1	0.000281508	13	0	0.3446	-6.97666e-06
2	0	0	1	0	0	12.1873	0.428166	0.427937	-0.0250514	1	0.000241065	13	0	2.0922	-1.07204e-05
2	0	0	1	0	0	13.9348	0.41069	0.410487	-0.0332974	1	0.000196255	13	0	3.8397	-1.36681e-05
2	0	0	1	0	0	15.6824	0.393214	0.39297	-0.0315485	1	0.000147595	13	0	5.5873	-1.23976e-05
2	0	0	1	0	0	17.4299	0.375739	0.375482	-0.0311357	1	9.47863e-05	13	0	7.3348	-1.16909e-05
2	0	0	1	0	0	19.1775	0.358263	0.357934	-0.0301878	1	3.69334e-05	13	0	9.0824	-1.08052e-05
2	1	0	1	0	1	20.8927	0.358912	0.358654	0.0253642	2	3.28729e-05	13	0	0.7938	9.09697e-06
2	1	0	1	0	1	22.6403	0.376388	0.376179	0.0291693	2	8.70758e-05	13	0	2.5414	1.09729e-05
2	1	0	1	0	1	24.3879	0.393864	0.393607	0.0339414	2	0.000139066	13	0	4.289	1.33596e-05
2	1	0	1	0	1	26.1355	0.411339	0.411162	0.0336158	2	0.000188526	13	0	6.0366	1.38215e-05
2	1	0	1	0	1	27.8831	0.428815	0.428584	0.0302421	2	0.00023557	13	0	7.7842	1.29613e-05
2	1	0	1	0	1	29.6307	0.446291	0.446044	0.0278355	2	0.000280633	13	0	9.5318	1.24159e-05
2	0	0	1	0	1	31.3849	0.436155	0.435864	-0.0239933	2	0.000260811	13	0	1.3431	-1.04578e-05
2	0	0	1	0	1	33.1325	0.418679	0.418414	-0.0308043	2	0.000217948	13	0	3.0907	-1.28889e-05
2	0	0	1	0	1	34.8801	0.401203	0.400938	-0.0337336	2	0.000171098	13	0	4.8383	-1.35251e-05
2	0	0	1	0	1	36.6277	0.383728	0.383482	-0.0331479	2	0.000120375	13	0	6.5859	-1.27116e-05
2	0	0	1	0	1	38.3753	0.366252	0.366016	-0.0319225	2	6.50452e-05	13	0	8.3335	-1.16841e-05
2	0	0	1	0	0	40.0305	0.350324	0.350024	0.00293978	3	8.54194e-06	13	0	9.9887	1.02899e-06
2	1	0	1	0	0	41.8381	0.368399	0.368138	0.0257792	3	6.35267e-05	13	0	1.7426	9.4903e-06
2	1	0	1	0	0	43.5856	0.385874	0.385575	0.0259961	3	0.000116595	13	0	3.4901	1.00235e-05
2	1	0	1	0	0	45.3332	0.40335	0.403091	0.0272596	3	0.000167044	13	0	5.2377	1.09881e-05
2	1	0	1	0	0	47.0808	0.420827	0.420593	0.0224987	3	0.000215148	13	0	6.9853	9.46278e-06
2	1	0	1	0	0	48.8283	0.438302	0.43807	0.0210124	3	0.0002611	13	0	8.7328	9.2049e-06
2	0	0	1	0	0	50.5827	0.444144	0.44391	-0.0242015	3	0.000280117	13	0	0.5593	-1.07433e-05
2	0	0	1	0	0	52.3302	0.426669	0.426424	-0.0191899	3	0.000239175	13	0	2.3068	-8.18306e-06
2	0	0	1	0	0	54.0778	0.409192	0.408976	-0.0260051	3	0.000194208	13	0	4.0544	-1.06355e-05
2	0	0	1	0	0	55.8254	0.391716	0.391432	-0.0353831	3	0.000145366	13	0	5.802	-1.38501e-05
2	0	0	1	0	0	57.5729	0.374241	0.374017	-0.0283988	3	9.23343e-05	13	0	7.5495	-1.06216e-05
2	0	0	1	0	0	59.3205	0.356765	0.356474	-0.0300643	3	3.42526e-05	13	0	9.2971	-1.07171e-05
2	1	0	1	0	1	61.0357	0.36041	0.360167	0.033745	4	3.936e-05	13	0	0.9436	1.21538e-05
2	1	0	1	0	1	62.7833	0.377886	0.377644	0.0361138	4	9.34535e-05	13	0	2.6912	1.36382e-05
2	1	0	1	0	1	64.5309	0.395362	0.395076	0.0313451	4	0.000145165	13	0	4.4388	1.23837e-05
2	1	0	1	0	1	66.2785	0.412837	0.41262	0.0232555	4	0.000194308	13	0	6.1864	9.59569e-06
2	1	0	1	0	1	68.0261	0.430313	0.430103	0.0201931	4	0.000241066	13	0	7.934	8.6851e-06
2	1	0	1	0	1	69.7737	0.447789	0.447636	0.0220078	4	0.000285917	13	0	9.6816	9.85149e-06
2	0	0	1	0	1	71.468	0.435257	0.43498	-0.029419	4	0.000260343	13	0	1.448	-1.27967e-05
2	0	0	1	0	1	73.2156	0.41778	0.417531	-0.0296312	4	0.000217236	13	0	3.1956	-1.23719e-05
2	0	0	1	0	1	74.9632	0.400304	0.400042	-0.0280996	4	0.000170346	13	0	4.9432	-1.1241e-05
2	0	0	1	0	1	76.7107	0.382829	0.382582	-0.02654	4	0.000119623	13	0	6.6907	-1.01537e-05
2	0	0	1	0	1	78.4583	0.365353	0.365088	-0.0273236	4	6.41641e-05	13	0	8.4383	-9.97553e-06
2	1	0	1	0	0	80.0737	0.350823	0.350592	0.0240453	5	1.12273e-05	13	0	0.000000000000000E+000	8.43008e-06
2	1	0	1	0	0	81.8812	0.368899	0.368625	0.0347295	5	6.60197e-05	13	0	1.8075	1.28021e-05
2	1	0	1	0	0	83.6287	0.386374	0.386106	0.0274106	5	0.000119031	13	0	3.555	1.05834e-05
2	1	0	1	0	0	85.3763	0.40385	0.403638	0.0222326	5	0.000169336	13	0	5.3026	8.97391e-06
2	1	0	1	0	0	87.1239	0.421326	0.421089	0.0210786	5	0.000217259	13	0	7.0502	8.87595e-06
2	1	0	1	0	0	88.8715	0.438801	0.438596	0.023317	5	0.000262996	13	0	8.7978	1.02267e-05
2	0	0	1	0	0	90.5659	0.444244	0.44397	-0.0273602	5	0.000280726	13	0	0.4994	-1.21471e-05
2	0	0	1	0	0	92.3135	0.426768	0.426484	-0.0263792	5	0.00023979	13	0	2.247	-1.12503e-05
2	0	0	1	0	0	94.061	0.409293	0.409081	-0.0245866	5	0.00019491	13	0	3.9945	-1.00579e-05
2	0	0	1	0	0	95.8086	0.391816	0.391585	-0.0250516	5	0.000146264	13	0	5.7421	-9.80983e-06
2	0	0	1	0	0	97.5562	0.37434	0.374062	-0.0265568	5	9.34501e-05	13	0	7.4897	-9.93388e-06
2	0	0	1	0	0	99.3037	0.356865	0.356566	-0.0288887	5	3.55727e-05	13	0	9.2372	-1.03007e-05
2	1	0	1	0	1	100.979	0.35991	0.359711	0.0377565	6	3.96032e-05	13	0	0.8787	1.35814e-05
2	1	0	1	0	1	102.727	0.377386	0.377115	0.0358515	6	9.35994e-05	13	0	2.6263	1.35201e-05
2	1	0	1	0	1	104.474	0.394863	0.394584	0.0324465	6	0.000145281	13	0	4.3739	1.28029e-05
2	1	0	1	0	1	106.222	0.412338	0.412117	0.0309647	6	0.000194428	13	0	6.1214	1.27611e-05
2	1	0	1	0	1	107.969	0.429814	0.429561	0.0273221	6	0.000241271	13	0	7.869	1.17365e-05
2	1	0	1	0	1	109.717	0.44729	0.447125	0.0240122	6	0.000286298	13	0	9.6166	1.07364e-05
2	0	0	1	0	1	111.411	0.435755	0.435495	-0.0208473	6	0.000263027	13	0	1.3482	-9.07888e-06
2	0	0	1	0	1	113.159	0.41828	0.418011	-0.0286786	6	0.000220039	13	0	3.0958	-1.1988e-05
2	0	0	1	0	1	114.906	0.400804	0.400539	-0.0335001	6	0.000173284	13	0	4.8434	-1.34181e-05
2	0	0	1	0	1	116.654	0.383329	0.383029	-0.0358149	6	0.000122729	13	0	6.5909	-1.37182e-05
2	0	0	1	0	1	118.402	0.365852	0.365585	-0.0370751	6	6.75894e-05	13	0	8.3385	-1.35541e-05
2	0	0	1	0	0	120.017	0.350324	0.350088	-0.00638259	7	1.27022e-05	13	0	9.9538	-2.23447e-06
2	1	0	1	0	0	121.824	0.368399	0.368208	0.0346174	7	6.73668e-05	13	0	1.7426	1.27464e-05
2	1	0	1	0	0	123.572	0.385874	0.385608	0.0347654	7	0.000120296	13	0	3.4901	1.34058e-05
2	1	0	1	0	0	125.32	0.40335	0.403074	0.0341027	7	0.000170661	13	0	5.2377	1.37459e-05
2	1	0	1	0	0	127.067	0.420827	0.420575	0.0327317	7	0.000218643	13	0	6.9853	1.37661e-05
2	1	0	1	0	0	128.815	0.438302	0.438086	0.0315643	7	0.00026456	13	0	8.7328	1.38279e-05
2	0	0	1	0	0	130.569	0.444144	0.443862	-0.0163127	7	0.000283983	13	0	0.5593	-7.24057e-06
2	0	0	1	0	0	132.317	0.426669	0.426413	-0.018967	7	0.00024306	13	0	2.3068	-8.08777e-06
2	0	0	1	0	0	134.064	0.409192	0.408956	-0.0212247	7	0.000198162	13	0	4.0544	-8.67998e-06
2	0	0	1	0	0	135.812	0.391716	0.39144	-0.0234073	7	0.000149518	13	0	5.802	-9.16257e-06
2	0	0	1	0	0	137.559	0.374241	0.373954	-0.0255796	7	9.67826e-05	13	0	7.5495	-9.5656e-06
2	0	0	1	0	0	139.307	0.356765	0.356458	-0.0289044	7	3.8967e-05	13	0	9.2971	-1.03032e-05
2	1	0	1	0	1	141.022	0.36041	0.360165	0.0274644	8	4.34401e-05	13	0	0.9436	9.89173e-06
2	1	0	1	0	1	142.77	0.377886	0.377607	0.0254809	8	9.72867e-05	13	0	2.6912	9.62179e-06
2	1	0	1	0	1	144.517	0.395362	0.395077	0.0247075	8	0.000148757	13	0	4.4388	9.76135e-06
2	1	0	1	0	1	146.265	0.412837	0.412612	0.0244754	8	0.000197722	13	0	6.1864	1.00988e-05
2	1	0	1	0	1	148.012	0.430313	0.430085	0.0258152	8	0.000244436	13	0	7.934	1.11027e-05
2	1	0	1	0	1	149.76	0.447789	0.447582	0.0267058	8	0.000289389	13	0	9.6816	1.19531e-05
2	0	0	1	0	1	151.514	0.434657	0.434406	-0.0183045	8	0.000262387	13	0	1.443	-7.95157e-06
2	0	0	1	0	1	153.262	0.417181	0.416931	-0.0201596	8	0.000219181	13	0	3.1906	-8.40518e-06
2	0	0	1	0	1	155.009	0.399705	0.399407	-0.0224326	8	0.000172272	13	0	4.9382	-8.95975e-06
2	0	0	1	0	1	156.757	0.38223	0.381958	-0.0280559	8	0.000121507	13	0	6.6858	-1.07162e-05
2	0	0	1	0	1	158.505	0.364754	0.364486	-0.0318743	8	6.61734e-05	13	0	8.4334	-1.16177e-05
2	1	0	1	0	0	160.16	0.351822	0.351565	0.032904	9	1.81674e-05	13	0	0.1498	1.15679e-05
2	1	0	1	0	0	161.907	0.369298	0.369041	0.0289956	9	7.20652e-05	13	0	1.8974	1.07006e-05
2	1	0	1	0	0	163.655	0.386773	0.386505	0.0239994	9	0.000124784	13	0	3.645	9.27589e-06
2	1	0	1	0	0	165.403	0.404249	0.404023	0.0220052	9	0.000174919	13	0	5.3926	8.8906e-06
2	1	0	1	0	0	167.15	0.421725	0.421448	0.0206354	9	0.000222715	13	0	7.1402	8.69678e-06
2	1	0	1	0	0	168.898	0.4392	0.43897	0.0199099	9	0.000268461	13	0	8.8877	8.73984e-06
2	0	0	1	0	0	170.552	0.444244	0.444015	-0.0250351	9	0.000285058	13	0	0.4994	-1.11159e-05
2	0	0	1	0	0	172.3	0.426768	0.426539	-0.0295556	9	0.000244241	13	0	2.247	-1.26066e-05
2	0	0	1	0	0	174.047	0.409293	0.409065	-0.0328826	9	0.000199486	13	0	3.9945	-1.34511e-05
2	0	0	1	0	0	175.795	0.391816	0.391522	-0.0336469	9	0.00015099	13	0	5.7421	-1.31735e-05
2	0	0	1	0	0	177.543	0.37434	0.37411	-0.0322281	9	9.83767e-05	13	0	7.4897	-1.20569e-05
2	0	0	1	0	0	179.29	0.356865	0.356557	-0.0285321	9	4.06825e-05	13	0	9.2372	-1.01733e-05
2	1	0	1	0	1	180.965	0.35991	0.359686	0.034061	10	4.31098e-05	13	0	0.8937	1.22513e-05
2	1	0	1	0	1	182.713	0.377386	0.377167	0.0265769	10	9.69919e-05	13	0	2.6413	1.00239e-05
2	1	0	1	0	1	184.461	0.394863	0.394605	0.0227151	10	0.000148541	13	0	4.3889	8.96349e-06
2	1	0	1	0	1	186.208	0.412338	0.412094	0.0249448	10	0.000197581	13	0	6.1364	1.02796e-05
2	1	0	1	0	1	187.956	0.429814	0.429585	0.030244	10	0.000244259	13	0	7.884	1.29924e-05
2	1	0	1	0	1	189.703	0.44729	0.447069	0.0310108	10	0.000289132	13	0	9.6316	1.3864e-05
2	0	0	1	0	1	191.458	0.435156	0.434945	-0.026105	10	0.00026369	13	0	1.3931	-1.13542e-05
2	0	0	1	0	1	193.205	0.41768	0.417375	-0.0313654	10	0.000220734	13	0	3.1407	-1.30912e-05
2	0	0	1	0	1	194.953	0.400205	0.399895	-0.0294381	10	0.000174067	13	0	4.8882	-1.17722e-05
2	0	0	1	0	1	196.7	0.382729	0.382438	-0.0257323	10	0.000123509	13	0	6.6358	-9.84103e-06
2	0	0	1	0	1	198.448	0.365253	0.365008	-0.0271814	10	6.83637e-05	13	0	8.3834	-9.92143e-06
2	0	0	1	0	1	199.971	0.35	0.349724	-0.0309294	10	1.60285e-05	13	0	9.9063	-1.08167e-05