File: ACS_Catal_2026/Figures_Na_K/main_figures/data/EC/20251112_2-148_alpha_reproducibility/20251112_2-148_006_gamma_reproducibility_2_K1_02_PEIS_C02.mpt
EC-Lab ASCII FILE
Nb header lines : 63

Potentio Electrochemical Impedance Spectroscopy

Run on channel : 2 (SN 69290)
User :
CE vs. WE compliance from -10 V to 10 V
Electrode connection : standard
Potential control : Ewe
Ewe ctrl range : min = -1.00 V, max = 1.00 V
Safety Limits :
	Do not start on E overload
Acquisition started on : 11/12/2025 19:12:40.101
Loaded Setting File :  C:\Users\User\Documents\EC-Lab\Data\Yatsuzuka\20251112_2-148_alpha_reproducibility\20251112_2-148_002_alpha_reproducibility_2_K1.mps
Saved on :
	File : 20251112_2-148_006_gamma_reproducibility_2_K1_02_PEIS_C02.mpr
	Directory : C:\Users\User\Documents\EC-Lab\Data\Yatsuzuka\20251112_2-148_alpha_reproducibility\
	Host : 192.109.209.127
Device : SP-150e (SN .003883)
Address : 192.109.209.128
EC-Lab for windows v11.52 (software)
Internet server v11.52 (firmware)
Command interpretor v11.50 (firmware)
Electrode material :
Initial state :
Electrolyte :
Comments :
Electrode surface area : 0.001 cm2
Characteristic mass : 0.001 g
Equivalent Weight : 0.000 g/eq.
Density : 0.000 g/cm3
Volume (V) : 0.001 cm3
Cycle Definition : Charge/Discharge alternance
Mode                Single sine
E (V)               0.4500
vs.                 Ref
tE (h:m:s)          0:00:0.0000
record              0
dI                  0.000
unit dI             mA
dt (s)              0.000
fi                  500.000
unit fi             kHz
ff                  1.000
unit ff             Hz
Nd                  6
Points              per decade
spacing             Logarithmic
Va (mV)             10.0
pw                  0.10
Na                  2
corr                0
E range min (V)     -1.000
E range max (V)     1.000
I Range             Auto
Bandwidth           5
nc cycles           0
goto Ns'            0
nr cycles           0
inc. cycle          0

freq/Hz	Re(Z)/Ohm	-Im(Z)/Ohm	|Z|/Ohm	Phase(Z)/deg	time/s	<Ewe>/V	<I>/mA	Cs/uF	Cp/uF	cycle number	I Range	|Ewe|/V	|I|/A	Ns	(Q-Qo)/mA.h	Re(Y)/Ohm-1	Im(Y)/Ohm-1	|Y|/Ohm-1	Phase(Y)/deg	Re(C)/nF	Im(C)/nF	|C|/nF	Phase(C)/deg	Re(M)	Im(M)	|M|	Phase(M)/deg	Re(Permittivity)	Im(Permittivity)	|Permittivity|	Phase(Permittivity)/deg	Re(Resistivity)/Ohm.cm	Im(Resistivity)/Ohm.cm	|Resistivity|/Ohm.cm	Phase(Resistivity)/deg	Re(Conductivity)/mS/cm	Im(Conductivity)/mS/cm	|Conductivity|/mS/cm	Phase(Conductivity)/deg	Tan(Delta)	Loss Angle(Delta)/deg	dq/mA.h
500019	14.4898	-2.02807	14.6311	7.96764	202.275	0.449778	0.0167177	-0.156946	-0.00301553	1	10	0.00506646	0.00034628	0	2.93022e-05	0.0676879	-0.00947393	0.0683477	-7.96764	-3.01553	21.5449	21.7549	-97.9676	0.0000000E+000	0.0000000E+000	0.0000000E+000	97.9676	0.0000000E+000	0.0000000E+000	0.0000000E+000	-97.9676	0.0000000E+000	0.0000000E+000	0.0000000E+000	7.96764	0.0000000E+000	0.0000000E+000	0.0000000E+000	-7.96764	7.14465	82.0324	2.93022e-05
231063	8.31545	-0.641234	8.34014	4.40955	203.119	0.449549	0.0176984	-1.07417	-0.00634981	1	10	0.0103366	0.00123938	0	3.36644e-05	0.119547	-0.00921871	0.119902	-4.40955	-6.34981	82.3436	82.5881	-94.4096	0.0000000E+000	0.0000000E+000	0.0000000E+000	94.4096	0.0000000E+000	0.0000000E+000	0.0000000E+000	-94.4096	0.0000000E+000	0.0000000E+000	0.0000000E+000	4.40955	0.0000000E+000	0.0000000E+000	0.0000000E+000	-4.40955	12.9679	85.5904	2.23859e-06
106786	7.61639	-0.0127623	7.6164	0.0960068	204.099	0.44954	0.0179912	-116.782	-0.000327895	1	10	0.0108909	0.00142993	0	3.10758e-05	0.131296	-0.000220004	0.131296	-0.0960068	-0.3279	195.684	195.684	-90.096	0.0000000E+000	0.0000000E+000	0.0000000E+000	90.096	0.0000000E+000	0.0000000E+000	0.0000000E+000	-90.096	0.0000000E+000	0.0000000E+000	0.0000000E+000	0.0960068	0.0000000E+000	0.0000000E+000	0.0000000E+000	-0.0960068	596.788	89.904	-5.36629e-07
49352.4	7.61596	0.0979237	7.61659	-0.736651	204.943	0.449547	0.0178588	32.9325	0.00544351	1	10	0.0106338	0.00139614	0	3.60112e-05	0.131282	0.00168798	0.131292	0.736651	5.44349	423.366	423.401	-89.2634	0.0000000E+000	0.0000000E+000	0.0000000E+000	89.2634	0.0000000E+000	0.0000000E+000	0.0000000E+000	-89.2634	0.0000000E+000	0.0000000E+000	0.0000000E+000	-0.736651	0.0000000E+000	0.0000000E+000	0.0000000E+000	0.736651	77.7745	89.2634	3.07831e-06
22806.6	7.64493	0.12068	7.64588	-0.904375	205.787	0.449552	0.018062	57.8262	0.0144059	1	10	0.0104181	0.00136258	0	4.0891e-05	0.130773	0.00206434	0.130789	0.904375	14.4059	912.596	912.71	-89.0956	0.0000000E+000	0.0000000E+000	0.0000000E+000	89.0956	0.0000000E+000	0.0000000E+000	0.0000000E+000	-89.0956	0.0000000E+000	0.0000000E+000	0.0000000E+000	-0.904375	0.0000000E+000	0.0000000E+000	0.0000000E+000	0.904375	63.3487	89.0956	1.79831e-06
10540.4	7.66832	0.169739	7.67019	-1.26804	206.631	0.449563	0.0185412	88.9574	0.0435645	1	10	0.0102174	0.00133209	0	4.34526e-05	0.130343	0.00288515	0.130375	1.26804	43.5646	1968.12	1968.6	-88.732	0.0000000E+000	0.0000000E+000	0.0000000E+000	88.732	0.0000000E+000	0.0000000E+000	0.0000000E+000	-88.732	0.0000000E+000	0.0000000E+000	0.0000000E+000	-1.26804	0.0000000E+000	0.0000000E+000	0.0000000E+000	1.26804	45.1771	88.732	2.40975e-06
4871.56	7.70629	0.294501	7.71191	-2.18853	207.623	0.449553	0.0186699	110.934	0.161776	1	10	0.0109111	0.00141484	0	4.77843e-05	0.129575	0.00495179	0.12967	2.18853	161.776	4233.24	4236.33	-87.8115	0.0000000E+000	0.0000000E+000	0.0000000E+000	87.8115	0.0000000E+000	0.0000000E+000	0.0000000E+000	-87.8115	0.0000000E+000	0.0000000E+000	0.0000000E+000	-2.18853	0.0000000E+000	0.0000000E+000	0.0000000E+000	2.18853	26.1673	87.8115	1.21871e-06
2250.72	7.79121	0.541766	7.81002	-3.97769	208.775	0.449552	0.0189309	130.523	0.628067	1	10	0.0102556	0.00131314	0	5.1093e-05	0.127732	0.00888193	0.128041	3.97769	628.067	9032.31	9054.12	-86.0223	0.0000000E+000	0.0000000E+000	0.0000000E+000	86.0223	0.0000000E+000	0.0000000E+000	0.0000000E+000	-86.0223	0.0000000E+000	0.0000000E+000	0.0000000E+000	-3.97769	0.0000000E+000	0.0000000E+000	0.0000000E+000	3.97769	14.3811	86.0223	1.40145e-06
1040.33	7.93489	1.00041	7.99771	-7.18581	209.705	0.449558	0.018461	152.921	2.39274	1	10	0.0103545	0.00129468	0	5.6386e-05	0.124054	0.0156404	0.125036	7.18581	2392.74	18978.3	19128.6	-82.8142	0.0000000E+000	0.0000000E+000	0.0000000E+000	82.8142	0.0000000E+000	0.0000000E+000	0.0000000E+000	-82.8142	0.0000000E+000	0.0000000E+000	0.0000000E+000	-7.18581	0.0000000E+000	0.0000000E+000	0.0000000E+000	7.18581	7.93161	82.8142	3.31398e-06
480.769	8.16737	1.83722	8.37145	-12.6774	210.635	0.449551	0.0184386	180.187	8.67845	1	10	0.0103666	0.00123833	0	5.98483e-05	0.116541	0.0262155	0.119454	12.6774	8678.45	38580.1	39544.2	-77.3226	0.0000000E+000	0.0000000E+000	0.0000000E+000	77.3226	0.0000000E+000	0.0000000E+000	0.0000000E+000	-77.3226	0.0000000E+000	0.0000000E+000	0.0000000E+000	-12.6774	0.0000000E+000	0.0000000E+000	0.0000000E+000	12.6774	4.44551	77.3226	1.70111e-06
222.061	8.47009	3.47	9.15332	-22.2778	211.559	0.449553	0.0180807	206.547	29.6839	1	10	0.0103533	0.0011311	0	6.42053e-05	0.101095	0.0414164	0.10925	22.2778	29683.9	72456.7	78301.4	-67.7222	0.0000000E+000	0.0000000E+000	0.0000000E+000	67.7222	0.0000000E+000	0.0000000E+000	0.0000000E+000	-67.7222	0.0000000E+000	0.0000000E+000	0.0000000E+000	-22.2778	0.0000000E+000	0.0000000E+000	0.0000000E+000	22.2778	2.44095	67.7222	2.24118e-06
102.667	8.85591	6.88027	11.2145	-37.8441	212.496	0.449557	0.0190465	225.311	84.8072	1	10	0.0103468	0.000922624	0	6.98046e-05	0.0704162	0.0547072	0.0891702	37.8441	84807.2	109159	138232	-52.1559	0.0000000E+000	0.0000000E+000	0.0000000E+000	52.1559	0.0000000E+000	0.0000000E+000	0.0000000E+000	-52.1559	0.0000000E+000	0.0000000E+000	0.0000000E+000	-37.8441	0.0000000E+000	0.0000000E+000	0.0000000E+000	37.8441	1.28715	52.1559	3.17909e-06
47.4443	9.49014	14.1157	17.0093	-56.0866	213.407	0.449545	0.0168538	237.648	163.669	1	10	0.0103335	0.000607524	0	7.51378e-05	0.0328021	0.04879	0.0587915	56.0866	163669	110037	197220	-33.9134	0.0000000E+000	0.0000000E+000	0.0000000E+000	33.9134	0.0000000E+000	0.0000000E+000	0.0000000E+000	-33.9134	0.0000000E+000	0.0000000E+000	0.0000000E+000	-56.0866	0.0000000E+000	0.0000000E+000	0.0000000E+000	56.0866	0.672312	33.9134	2.48657e-06
21.9144	10.6257	29.2816	31.1499	-70.0552	214.514	0.449545	0.000592162	248.025	219.164	1	11	0.0103427	0.00033203	0	7.756e-05	0.0109508	0.0301773	0.0321028	70.0552	219164	79530.5	233148	-19.9448	0.0000000E+000	0.0000000E+000	0.0000000E+000	19.9448	0.0000000E+000	0.0000000E+000	0.0000000E+000	-19.9448	0.0000000E+000	0.0000000E+000	0.0000000E+000	-70.0552	0.0000000E+000	0.0000000E+000	0.0000000E+000	70.0552	0.36288	19.9449	7.04418e-07
10.1329	13.0019	60.6771	62.0545	-77.9055	215.442	0.449548	0.00100956	258.857	247.493	1	11	0.0103309	0.000166481	0	7.63389e-05	0.00337645	0.0157572	0.0161149	77.9055	247493	53032.8	253111	-12.0945	0.0000000E+000	0.0000000E+000	0.0000000E+000	12.0945	0.0000000E+000	0.0000000E+000	0.0000000E+000	-12.0945	0.0000000E+000	0.0000000E+000	0.0000000E+000	-77.9055	0.0000000E+000	0.0000000E+000	0.0000000E+000	77.9055	0.21428	12.0945	-1.08679e-06
4.68375	17.9726	127.394	128.656	-81.9698	216.558	0.449563	0.000670955	266.732	261.527	1	12	0.010336	8.03386e-05	0	7.71244e-05	0.00108581	0.00769645	0.00777267	81.9698	261527	36895.9	264117	-8.03022	0.0000000E+000	0.0000000E+000	0.0000000E+000	8.03022	0.0000000E+000	0.0000000E+000	0.0000000E+000	-8.03022	0.0000000E+000	0.0000000E+000	0.0000000E+000	-81.9698	0.0000000E+000	0.0000000E+000	0.0000000E+000	81.9698	0.141079	8.03021	-5.55099e-07
2.16533	27.8658	266.258	267.712	-84.0253	218.271	0.44957	0.000803693	276.054	273.063	1	12	0.0103301	3.85866e-05	0	7.86278e-05	0.000388808	0.00371506	0.00373535	84.0253	273063	28578	274554	-5.97466	0.0000000E+000	0.0000000E+000	0.0000000E+000	5.97466	0.0000000E+000	0.0000000E+000	0.0000000E+000	-5.97466	0.0000000E+000	0.0000000E+000	0.0000000E+000	-84.0253	0.0000000E+000	0.0000000E+000	0.0000000E+000	84.0253	0.104657	5.97467	3.73602e-07
1.00006	53.5295	557.512	560.075	-84.5156	222.611	0.449567	0.000611894	285.456	282.848	1	13	0.0103331	1.84495e-05	0	7.82077e-05	0.000170648	0.0017773	0.00178547	84.5156	282848	27157.7	284149	-5.48444	0.0000000E+000	0.0000000E+000	0.0000000E+000	5.48444	0.0000000E+000	0.0000000E+000	0.0000000E+000	-5.48444	0.0000000E+000	0.0000000E+000	0.0000000E+000	-84.5156	0.0000000E+000	0.0000000E+000	0.0000000E+000	84.5156	0.096015	5.48444	-9.70864e-08