File: ACS_Catal_2026/Figures_Na_K/main_figures/data/EC/20251112_2-148_alpha_reproducibility/20251112_2-148_004_Na_first_2_Na2_01_CVA_C02.mpt
EC-Lab ASCII FILE
Nb header lines : 66

Cyclic Voltammetry Advanced

Run on channel : 2 (SN 69290)
User :
CE vs. WE compliance from -10 V to 10 V
Electrode connection : standard
Potential control : Ewe
Ewe ctrl range : min = -1.00 V, max = 1.00 V
Safety Limits :
	Do not start on E overload
Acquisition started on : 11/12/2025 17:10:29.402
Loaded Setting File :  C:\Users\User\Documents\EC-Lab\Data\Yatsuzuka\20251112_2-148_alpha_reproducibility\20251112_2-148_002_alpha_reproducibility_2_K1.mps
Saved on :
	File : 20251112_2-148_004_Na_first_2_Na2_01_CVA_C02.mpr
	Directory : C:\Users\User\Documents\EC-Lab\Data\Yatsuzuka\20251112_2-148_alpha_reproducibility\
	Host : 192.109.209.127
Device : SP-150e (SN .003883)
Address : 192.109.209.128
EC-Lab for windows v11.52 (software)
Internet server v11.52 (firmware)
Command interpretor v11.50 (firmware)
Electrode material :
Initial state :
Electrolyte :
Comments :
Electrode surface area : 0.001 cm2
Characteristic mass : 0.001 g
Equivalent Weight : 0.000 g/eq.
Density : 0.000 g/cm3
Volume (V) : 0.001 cm3
Cycle Definition : Charge/Discharge alternance
Ei (V)              0.350
vs.                 Ref
ti (h:m:s)          0:00:10.0000
dti (s)             0.0000
dE/dt               10.000
dE/dt unit          mV/s
E1 (V)              0.450
vs.                 Ref
t1 (h:m:s)          0:00:0.0000
dt1 (s)             0.1000
Step percent        50
N                   10
E range min (V)     -1.000
E range max (V)     1.000
I Range             Auto
I Range min         Unset
I Range max         Unset
I Range init        Unset
Bandwidth           5
E2 (V)              0.350
vs.                 Ref
t2 (h:m:s)          0:00:0.0000
dt2 (s)             0.1000
nc cycles           9
nr                  1
Reverse Scan        0
Ef (V)              0.000
vs.                 Eoc
tf (h:m:s)          0:00:0.0000
dtf (s)             0.1000

mode	ox/red	error	control changes	Ns changes	counter inc.	time/s	control/V	Ewe/V	<I>/mA	cycle number	(Q-Qo)/C	I Range	Ns	step time/s	P/W
2	1	0	0	0	0	0.000000000000000E+000	0.349989	0.349438	0.0156362	1	0.0000000E+000	13	0	0.000000000000000E+000	5.46387e-06
2	1	0	1	0	0	1.7255	0.367244	0.366805	0.0283485	1	5.4836e-05	13	0	1.698	1.03984e-05
2	1	0	1	0	0	3.4735	0.384723	0.384269	0.0282974	1	0.000109026	13	0	3.446	1.08738e-05
2	1	0	1	0	0	5.2214	0.402202	0.401768	0.0344631	1	0.000160133	13	0	5.1939	1.38462e-05
2	1	0	1	0	0	6.9693	0.419681	0.41921	0.03035	1	0.000208426	13	0	6.9418	1.2723e-05
2	1	0	1	0	0	8.7173	0.437161	0.436685	0.0352921	1	0.00025445	13	0	8.6898	1.54115e-05
2	0	0	1	0	0	10.4409	0.445601	0.445105	-0.0207276	1	0.000279279	13	0	0.4145	-9.22599e-06
2	0	0	1	0	0	12.1889	0.428121	0.42764	-0.0208506	1	0.000238983	13	0	2.1625	-8.91657e-06
2	0	0	1	0	0	13.9368	0.410642	0.410145	-0.0181711	1	0.0001946	13	0	3.9104	-7.4528e-06
2	0	0	1	0	0	15.6847	0.393163	0.392674	-0.0245312	1	0.000146461	13	0	5.6583	-9.63277e-06
2	0	0	1	0	0	17.4327	0.375684	0.375227	-0.0399747	1	9.41324e-05	13	0	7.4063	-1.49996e-05
2	0	0	1	0	0	19.1806	0.358203	0.357698	-0.0423801	1	3.67846e-05	13	0	9.1542	-1.51593e-05
2	1	0	1	0	1	20.8901	0.358903	0.358411	0.0414923	2	3.31629e-05	13	0	0.794	1.48713e-05
2	1	0	1	0	1	22.6381	0.376383	0.375916	0.0372005	2	8.72112e-05	13	0	2.542	1.39842e-05
2	1	0	1	0	1	24.386	0.393862	0.393412	0.037761	2	0.000138863	13	0	4.2899	1.48556e-05
2	1	0	1	0	1	26.1339	0.411341	0.41089	0.0367848	2	0.000187899	13	0	6.0378	1.51145e-05
2	1	0	1	0	1	27.8819	0.428821	0.428383	0.0350155	2	0.000234705	13	0	7.7858	1.50001e-05
2	1	0	1	0	1	29.6298	0.446301	0.445818	0.0332837	2	0.000279661	13	0	9.5337	1.48385e-05
2	0	0	1	0	1	31.3834	0.436162	0.435696	-0.0138144	2	0.000259425	13	0	1.3434	-6.01889e-06
2	0	0	1	0	1	33.1313	0.418683	0.418227	-0.0249907	2	0.000216629	13	0	3.0913	-1.04518e-05
2	0	0	1	0	1	34.8793	0.401203	0.400726	-0.0372352	2	0.00017026	13	0	4.8393	-1.49211e-05
2	0	0	1	0	1	36.6272	0.383724	0.383279	-0.0284535	2	0.000119938	13	0	6.5872	-1.09057e-05
2	0	0	1	0	1	38.3751	0.366245	0.365765	-0.0228666	2	6.499e-05	13	0	8.3351	-8.36378e-06
2	0	0	1	0	0	40.0297	0.350314	0.349879	0.0127603	3	9.0131e-06	13	0	0.000000000000000E+000	4.46456e-06
2	1	0	1	0	0	41.8376	0.368392	0.367991	0.0284393	3	6.36283e-05	13	0	1.8079	1.04654e-05
2	1	0	1	0	0	43.5855	0.385871	0.385413	0.0284725	3	0.000116557	13	0	3.5558	1.09737e-05
2	1	0	1	0	0	45.3335	0.403351	0.402954	0.0331462	3	0.000166677	13	0	5.3038	1.33564e-05
2	1	0	1	0	0	47.0814	0.42083	0.420385	0.0174266	3	0.000214375	13	0	7.0517	7.32587e-06
2	1	0	1	0	0	48.8293	0.438309	0.437892	0.0309383	3	0.000260101	13	0	8.7996	1.35476e-05
2	0	0	1	0	0	50.5829	0.444152	0.443646	-0.0149228	3	0.000278277	13	0	0.5443	-6.62044e-06
2	0	0	1	0	0	52.3309	0.426673	0.426203	-0.0279564	3	0.000237343	13	0	2.2923	-1.19151e-05
2	0	0	1	0	0	54.0788	0.409195	0.408691	-0.0349611	3	0.000192712	13	0	4.0402	-1.42883e-05
2	0	0	1	0	0	55.8267	0.391715	0.391322	-0.0225703	3	0.000144265	13	0	5.7881	-8.83228e-06
2	0	0	1	0	0	57.5747	0.374235	0.373737	-0.0386255	3	9.17301e-05	13	0	7.5361	-1.44358e-05
2	0	0	1	0	0	59.3226	0.356756	0.356353	-0.0322904	3	3.39543e-05	13	0	9.284	-1.15068e-05
2	1	0	1	0	1	61.0371	0.360402	0.359967	0.0224334	4	4.07195e-05	13	0	1.0088	8.07529e-06
2	1	0	1	0	1	62.7851	0.377881	0.377478	0.0392565	4	9.44532e-05	13	0	2.7568	1.48185e-05
2	1	0	1	0	1	64.533	0.39536	0.394907	0.0219162	4	0.000145724	13	0	4.5047	8.65485e-06
2	1	0	1	0	1	66.2809	0.41284	0.412366	0.0181382	4	0.000194391	13	0	6.2526	7.47958e-06
2	1	0	1	0	1	68.0289	0.430319	0.429881	0.0353293	4	0.000240996	13	0	8.0006	1.51874e-05
2	1	0	1	0	1	69.7768	0.447798	0.447386	0.0227956	4	0.000285676	13	0	9.7485	1.01984e-05
2	0	0	1	0	1	71.5305	0.434664	0.434107	-0.0223095	4	0.000258504	13	0	1.4933	-9.68469e-06
2	0	0	1	0	1	73.2783	0.417184	0.416694	-0.0270645	4	0.000215315	13	0	3.2411	-1.12776e-05
2	0	0	1	0	1	75.0263	0.399705	0.399239	-0.0366956	4	0.000168771	13	0	4.9891	-1.46503e-05
2	0	0	1	0	1	76.7742	0.382227	0.381816	-0.0223185	4	0.000118156	13	0	6.737	-8.52158e-06
2	0	0	1	0	1	78.5221	0.364747	0.364272	-0.0423438	4	6.29394e-05	13	0	8.4849	-1.54247e-05
2	1	0	1	0	0	80.2217	0.352261	0.351819	0.029395	5	1.67639e-05	12	0	0.1948	1.03417e-05
2	1	0	1	0	0	81.9847	0.36989	0.369525	0.026356	5	7.12083e-05	13	0	1.9578	9.73918e-06
2	1	0	1	0	0	83.7325	0.38737	0.386918	0.0283301	5	0.00012371	13	0	3.7056	1.09614e-05
2	1	0	1	0	0	85.4805	0.404849	0.404432	0.0285725	5	0.000173553	13	0	5.4536	1.15556e-05
2	1	0	1	0	0	87.2284	0.422327	0.42191	0.0263282	5	0.00022102	13	0	7.2015	1.11081e-05
2	1	0	1	0	0	88.9763	0.439808	0.439373	0.030242	5	0.000266433	13	0	8.9494	1.32875e-05
2	0	0	1	0	0	90.73	0.442653	0.442172	-0.0253172	5	0.00027806	13	0	0.6293	-1.11945e-05
2	0	0	1	0	0	92.4779	0.425175	0.42469	-0.0180847	5	0.000236773	13	0	2.3772	-7.68039e-06
2	0	0	1	0	0	94.2259	0.407696	0.407166	-0.0357961	5	0.000191735	13	0	4.1252	-1.45749e-05
2	0	0	1	0	0	95.9737	0.390216	0.389751	-0.0234444	5	0.000143086	13	0	5.873	-9.13747e-06
2	0	0	1	0	0	97.7217	0.372737	0.372264	-0.0219049	5	9.01296e-05	13	0	7.621	-8.15439e-06
2	0	0	1	0	0	99.4696	0.355259	0.354807	-0.0375493	5	3.2104e-05	13	0	9.3689	-1.33228e-05
2	1	0	1	0	1	101.184	0.361901	0.361492	0.0341205	6	4.82847e-05	13	0	1.1587	1.23343e-05
2	1	0	1	0	1	102.932	0.379379	0.378934	0.0201638	6	0.000101824	13	0	2.9066	7.64076e-06
2	1	0	1	0	1	104.68	0.396858	0.396455	0.0367436	6	0.000152807	13	0	4.6546	1.45672e-05
2	1	0	1	0	1	106.428	0.414338	0.413897	0.030306	6	0.000201129	13	0	6.4024	1.25436e-05
2	1	0	1	0	1	108.176	0.431817	0.431355	0.0201371	6	0.000247517	13	0	8.1504	8.68624e-06
2	1	0	1	0	1	109.924	0.449295	0.448848	0.0304146	6	0.000291982	13	0	9.8983	1.36515e-05
2	0	0	1	0	1	111.677	0.433165	0.432678	-0.025257	6	0.000257397	13	0	1.6431	-1.09281e-05
2	0	0	1	0	1	113.425	0.415685	0.415213	-0.0221982	6	0.000213955	13	0	3.391	-9.21698e-06
2	0	0	1	0	1	115.173	0.398207	0.39774	-0.0334796	6	0.00016713	13	0	5.1389	-1.33162e-05
2	0	0	1	0	1	116.921	0.380728	0.380287	-0.0206345	6	0.000116342	13	0	6.8869	-7.84704e-06
2	0	0	1	0	1	118.669	0.363248	0.362777	-0.025078	6	6.08665e-05	13	0	8.6347	-9.09773e-06
2	1	0	1	0	0	120.384	0.353909	0.353465	0.0343741	7	2.45224e-05	13	0	0.2946	1.21501e-05
2	1	0	1	0	0	122.132	0.371389	0.371001	0.0399339	7	7.83726e-05	13	0	2.0426	1.48155e-05
2	1	0	1	0	0	123.88	0.388869	0.388453	0.031566	7	0.000130481	13	0	3.7905	1.22619e-05
2	1	0	1	0	0	125.627	0.406347	0.405924	0.0230953	7	0.000180083	13	0	5.5384	9.37494e-06
2	1	0	1	0	0	127.375	0.423826	0.423402	0.0324584	7	0.000227139	13	0	7.2864	1.3743e-05
2	1	0	1	0	0	129.123	0.441306	0.440824	0.0172248	7	0.000272434	13	0	9.0342	7.59311e-06
2	0	0	1	0	0	130.877	0.441156	0.440671	-0.0190146	7	0.000275978	13	0	0.844	-8.3792e-06
2	0	0	1	0	0	132.625	0.423677	0.423169	-0.0257399	7	0.000234473	13	0	2.5919	-1.08923e-05
2	0	0	1	0	0	134.373	0.406197	0.405767	-0.0305968	7	0.000189191	13	0	4.3399	-1.24152e-05
2	0	0	1	0	0	136.121	0.388718	0.388265	-0.0221956	7	0.000140267	13	0	6.0878	-8.61775e-06
2	0	0	1	0	0	137.869	0.371239	0.370773	-0.0408537	7	8.7052e-05	13	0	7.8357	-1.51475e-05
2	0	0	1	0	0	139.617	0.35376	0.353231	-0.0257414	7	2.86483e-05	13	0	9.5837	-9.09265e-06
2	1	0	1	0	1	141.331	0.363398	0.362988	0.0391674	8	5.50388e-05	13	0	1.3085	1.42173e-05
2	1	0	1	0	1	143.079	0.380877	0.380452	0.0204186	8	0.000108291	13	0	3.0564	7.7683e-06
2	1	0	1	0	1	144.827	0.398357	0.397939	0.0376059	8	0.000158926	13	0	4.8044	1.49649e-05
2	1	0	1	0	1	146.575	0.415836	0.415424	0.0183584	8	0.000207033	13	0	6.5523	7.62651e-06
2	1	0	1	0	1	148.323	0.433315	0.432842	0.0331321	8	0.000253029	13	0	8.3002	1.4341e-05
2	1	0	1	0	1	150.032	0.449596	0.449089	-0.0133692	8	0.000295172	13	0	0.000000000000000E+000	-6.00397e-06
2	0	0	1	0	1	151.824	0.431667	0.431175	-0.0318011	8	0.000255183	13	0	1.7929	-1.37118e-05
2	0	0	1	0	1	153.572	0.414188	0.413677	-0.0237552	8	0.000211578	13	0	3.5408	-9.82697e-06
2	0	0	1	0	1	155.32	0.396709	0.396281	-0.0206727	8	0.000164446	13	0	5.2887	-8.19219e-06
2	0	0	1	0	1	157.068	0.379229	0.378779	-0.0404023	8	0.000113359	13	0	7.0367	-1.53036e-05
2	0	0	1	0	1	158.816	0.36175	0.361256	-0.0393328	8	5.75403e-05	13	0	8.7846	-1.42092e-05
2	1	0	1	0	0	160.531	0.355408	0.354948	0.0203047	9	3.07369e-05	13	0	0.5094	7.20712e-06
2	1	0	1	0	0	162.279	0.372887	0.372447	0.0385517	9	8.45515e-05	13	0	2.2574	1.43585e-05
2	1	0	1	0	0	164.027	0.390366	0.389931	0.0208607	9	0.000136447	13	0	4.0053	8.13421e-06
2	1	0	1	0	0	165.774	0.407845	0.407363	0.0342451	9	0.00018562	13	0	5.7532	1.39502e-05
2	1	0	1	0	0	167.522	0.425325	0.424887	0.0186356	9	0.000232564	13	0	7.5012	7.91804e-06
2	1	0	1	0	0	169.27	0.442804	0.442383	0.0339383	9	0.000277682	13	0	9.2491	1.50137e-05
2	0	0	1	0	0	171.024	0.439658	0.439163	-0.0291952	9	0.000274817	13	0	0.9939	-1.28215e-05
2	0	0	1	0	0	172.772	0.422178	0.421717	-0.0178528	9	0.000232891	13	0	2.7417	-7.52884e-06
2	0	0	1	0	0	174.52	0.404699	0.404215	-0.0345185	9	0.000187509	13	0	4.4897	-1.39529e-05
2	0	0	1	0	0	176.268	0.38722	0.386796	-0.0200334	9	0.00013826	13	0	6.2376	-7.74885e-06
2	0	0	1	0	0	178.016	0.369741	0.369292	-0.0418827	9	8.47382e-05	13	0	7.9855	-1.54669e-05
2	0	0	1	0	0	179.764	0.352261	0.351838	-0.0279572	9	2.59335e-05	13	0	9.7335	-9.83638e-06
2	1	0	1	0	1	181.478	0.364895	0.364471	0.0396404	10	6.10625e-05	13	0	1.4583	1.44478e-05
2	1	0	1	0	1	183.226	0.382376	0.381946	0.0222438	10	0.000114062	13	0	3.2062	8.49595e-06
2	1	0	1	0	1	184.974	0.399855	0.399423	0.0325414	10	0.00016437	13	0	4.9542	1.29978e-05
2	1	0	1	0	1	186.722	0.417334	0.416902	0.031387	10	0.000212327	13	0	6.7021	1.30853e-05
2	1	0	1	0	1	188.47	0.434813	0.43437	0.0165585	10	0.000258113	13	0	8.45	7.19254e-06
2	0	0	1	0	1	190.224	0.447647	0.447194	-0.0175576	10	0.000292218	13	0	0.1948	-7.85167e-06
2	0	0	1	0	1	191.971	0.430169	0.429654	-0.0222642	10	0.000252583	13	0	1.9427	-9.56591e-06
2	0	0	1	0	1	193.719	0.41269	0.412214	-0.0326823	10	0.000208627	13	0	3.6907	-1.34721e-05
2	0	0	1	0	1	195.467	0.39521	0.394705	-0.0194165	10	0.000161255	13	0	5.4385	-7.66381e-06
2	0	0	1	0	1	197.215	0.377731	0.377254	-0.0316468	10	0.000109856	13	0	7.1865	-1.19389e-05
2	0	0	1	0	1	198.963	0.360253	0.359785	-0.0303897	10	5.3654e-05	13	0	8.9344	-1.09337e-05
2	0	0	0	0	1	199.986	0.349989	0.349553	-0.0583281	10	1.80746e-05	13	0	9.9572	-2.03887e-05