File: ACS_Catal_2026/Figures_Na_K/main_figures/data/EC/20251112_2-148_alpha_reproducibility/20251112_2-148_001_alpha_reproducibility_1_K2_01_CVA_C01.mpt
EC-Lab ASCII FILE
Nb header lines : 66

Cyclic Voltammetry Advanced

Run on channel : 1 (SN 69187)
User :
CE vs. WE compliance from -10 V to 10 V
Electrode connection : standard
Potential control : Ewe
Ewe ctrl range : min = -1.00 V, max = 1.00 V
Safety Limits :
	Do not start on E overload
Acquisition started on : 11/12/2025 14:40:36.984
Loaded Setting File :  C:\Users\User\Documents\EC-Lab\Data\Yatsuzuka\20251030_2-147_gamma_reproducibility\20251030_2-147_001_gamma1_K_1.mps
Saved on :
	File : 20251112_2-148_001_alpha_reproducibility_1_K2_01_CVA_C01.mpr
	Directory : C:\Users\User\Documents\EC-Lab\Data\Yatsuzuka\20251112_2-148_alpha_reproducibility\
	Host : 192.109.209.127
Device : SP-150e (SN .003883)
Address : 192.109.209.128
EC-LAB for windows v11.52 (software)
Internet server v11.52 (firmware)
Command interpretor v11.50 (firmware)
Electrode material :
Initial state :
Electrolyte :
Comments :
Electrode surface area : 0.001 cm2
Characteristic mass : 0.001 g
Equivalent Weight : 0.000 g/eq.
Density : 0.000 g/cm3
Volume (V) : 0.001 cm3
Cycle Definition : Charge/Discharge alternance
Ei (V)              0.350
vs.                 Ref
ti (h:m:s)          0:00:10.0000
dti (s)             0.0000
dE/dt               10.000
dE/dt unit          mV/s
E1 (V)              0.450
vs.                 Ref
t1 (h:m:s)          0:00:0.0000
dt1 (s)             0.1000
Step percent        50
N                   10
E range min (V)     -1.000
E range max (V)     1.000
I Range             Auto
I Range min         Unset
I Range max         Unset
I Range init        Unset
Bandwidth           5
E2 (V)              0.350
vs.                 Ref
t2 (h:m:s)          0:00:0.0000
dt2 (s)             0.1000
nc cycles           9
nr                  1
Reverse Scan        0
Ef (V)              0.000
vs.                 Eoc
tf (h:m:s)          0:00:0.0000
dtf (s)             0.1000

mode	ox/red	error	control changes	Ns changes	counter inc.	time/s	control/V	Ewe/V	<I>/mA	cycle number	(Q-Qo)/C	I Range	Ns	step time/s	Pwe/W	Rwe/Ohm
2	1	0	1	0	0	0.000000000000000E+000	0.34995	0.349857	0.010297	1	0.0000000E+000	13	0	0.000000000000000E+000	3.60249e-06	33976.5
2	1	0	1	0	0	1.8748	0.368698	0.368437	0.0303658	1	5.87987e-05	13	0	1.8475	1.11879e-05	12133.3
2	1	0	1	0	0	3.7722	0.387673	0.387383	0.0279046	1	0.000116649	13	0	3.7449	1.08098e-05	13882.4
2	1	0	1	0	0	5.6695	0.406646	0.406481	0.0323515	1	0.000170754	13	0	5.6422	1.31503e-05	12564.5
2	1	0	1	0	0	7.5669	0.42562	0.425412	0.019031	1	0.000221448	13	0	7.5396	8.09602e-06	22353.6
2	1	0	1	0	0	9.4643	0.444593	0.444405	0.0321062	1	0.000269387	13	0	9.437	1.42681e-05	13841.7
2	0	0	1	0	0	11.3384	0.436654	0.436349	-0.0198148	1	0.000256055	13	0	1.2932	-8.64616e-06	22021.4
2	0	0	1	0	0	13.2358	0.41768	0.417396	-0.0296367	1	0.000211396	13	0	3.1906	-1.23702e-05	14083.7
2	0	0	1	0	0	15.1331	0.398707	0.398449	-0.0205693	1	0.000161949	13	0	5.0879	-8.19582e-06	19371
2	0	0	1	0	0	17.0305	0.379733	0.379439	-0.0375446	1	0.00010751	13	0	6.9853	-1.42459e-05	10106.3
2	0	0	1	0	0	18.9279	0.36076	0.36051	-0.0247988	1	4.72471e-05	13	0	8.8827	-8.94021e-06	14537.4
2	1	0	1	0	1	20.7929	0.357913	0.357647	0.0373562	2	3.19504e-05	13	0	0.709	1.33604e-05	9573.97
2	1	0	1	0	1	22.6903	0.376887	0.376641	0.0228005	2	9.0239e-05	13	0	2.6064	8.58759e-06	16519
2	1	0	1	0	1	24.5877	0.395861	0.395592	0.036449	2	0.000145539	13	0	4.5038	1.44189e-05	10853.3
2	1	0	1	0	1	26.485	0.414834	0.414636	0.0190186	2	0.000197489	13	0	6.4011	7.88578e-06	21801.6
2	1	0	1	0	1	28.3824	0.433809	0.433595	0.0327383	2	0.000246442	13	0	8.2985	1.41952e-05	13244.3
2	0	0	1	0	1	30.2865	0.44714	0.44685	-0.0264773	2	0.000281704	13	0	0.2597	-1.18314e-05	16876.7
2	0	0	1	0	1	32.1839	0.428166	0.427937	-0.0160339	2	0.00023988	13	0	2.1571	-6.86152e-06	26689.5
2	0	0	1	0	1	34.0812	0.409192	0.408952	-0.0338278	2	0.000193019	13	0	4.0544	-1.38339e-05	12089.2
2	0	0	1	0	1	35.9786	0.390218	0.389932	-0.02122	2	0.000141289	13	0	5.9518	-8.27437e-06	18375.7
2	0	0	1	0	1	37.8759	0.371245	0.370976	-0.0390874	2	8.41538e-05	13	0	7.8491	-1.45005e-05	9490.94
2	0	0	1	0	1	39.7733	0.352271	0.352013	-0.0281825	2	2.06827e-05	13	0	9.7465	-9.92062e-06	12490.5
2	1	0	1	0	0	41.5784	0.365802	0.365583	0.0266232	3	5.89263e-05	13	0	1.5479	9.73299e-06	13731.7
2	1	0	1	0	0	43.4758	0.384777	0.38452	0.0327157	3	0.000116224	13	0	3.4453	1.25799e-05	11753.4
2	1	0	1	0	0	45.3731	0.40375	0.403556	0.0270186	3	0.000170081	13	0	5.3426	1.09035e-05	14936.2
2	1	0	1	0	0	47.2705	0.422724	0.422501	0.0254061	3	0.00022075	13	0	7.24	1.07341e-05	16629.9
2	1	0	1	0	0	49.1679	0.441697	0.44144	0.0270678	3	0.000268594	13	0	9.1374	1.19488e-05	16308.7
2	0	0	1	0	0	50.9721	0.440249	0.439978	-0.0272472	3	0.000269937	13	0	0.8988	-1.19882e-05	16147.6
2	0	0	1	0	0	52.8695	0.421276	0.420987	-0.0174218	3	0.000225992	13	0	2.7962	-7.33434e-06	24164.4
2	0	0	1	0	0	54.7669	0.402302	0.402013	-0.0346243	3	0.000177151	13	0	4.6936	-1.39195e-05	11610.7
2	0	0	1	0	0	56.6642	0.383329	0.383049	-0.0222068	3	0.000123445	13	0	6.5909	-8.50628e-06	17249.2
2	0	0	1	0	0	58.5616	0.364354	0.364082	-0.0397786	3	6.40005e-05	13	0	8.4883	-1.44827e-05	9152.71
2	1	0	1	0	1	60.3867	0.353919	0.353714	0.0383668	4	2.42414e-05	13	0	0.3596	1.35709e-05	9219.28
2	1	0	1	0	1	62.284	0.372892	0.372611	0.0225439	4	8.27276e-05	13	0	2.2569	8.40009e-06	16528.3
2	1	0	1	0	1	64.1814	0.391867	0.391632	0.0355374	4	0.00013885	13	0	4.1543	1.39176e-05	11020.3
2	1	0	1	0	1	66.0787	0.41084	0.410661	0.0210489	4	0.000191498	13	0	6.0516	8.64397e-06	19509.9
2	1	0	1	0	1	67.9761	0.429814	0.4296	0.0304655	4	0.000241024	13	0	7.949	1.3088e-05	14101.2
2	1	0	1	0	1	69.8735	0.448787	0.448608	0.0210892	4	0.000288151	13	0	9.8464	9.4608e-06	21271.9
2	0	0	1	0	1	71.7776	0.43216	0.431897	-0.019756	4	0.000253678	13	0	1.6927	-8.53255e-06	21861.6
2	0	0	1	0	1	73.6749	0.413187	0.412953	-0.0270401	4	0.000207469	13	0	3.59	-1.11663e-05	15271.9
2	0	0	1	0	1	75.5723	0.394213	0.393914	-0.0273783	4	0.000156544	13	0	5.4874	-1.07847e-05	14387.8
2	0	0	1	0	1	77.4697	0.375239	0.374963	-0.0257198	4	0.000100491	13	0	7.3848	-9.64396e-06	14578.8
2	0	0	1	0	1	79.3671	0.356266	0.355961	-0.0434568	4	3.8304e-05	13	0	9.2822	-1.54689e-05	8191.15
2	1	0	1	0	0	81.2321	0.362407	0.362145	0.0229897	5	5.21097e-05	13	0	1.2084	8.32558e-06	15752.5
2	1	0	1	0	0	83.1295	0.381381	0.381111	0.0374006	5	0.000109991	13	0	3.1058	1.42538e-05	10190
2	1	0	1	0	0	85.0268	0.400354	0.400156	0.0233933	5	0.000164565	13	0	5.0031	9.36098e-06	17105.6
2	1	0	1	0	0	86.9242	0.419329	0.419027	0.0258846	5	0.000215762	13	0	6.9005	1.08463e-05	16188.3
2	1	0	1	0	0	88.8215	0.438302	0.438071	0.0293296	5	0.000264064	13	0	8.7978	1.28485e-05	14936.1
2	0	0	1	0	0	90.7257	0.442646	0.442398	-0.0275869	5	0.000278916	13	0	0.7091	-1.22044e-05	16036.5
2	0	0	1	0	0	92.623	0.423673	0.423422	-0.0170594	5	0.000235496	13	0	2.6064	-7.22333e-06	24820.5
2	0	0	1	0	0	94.5204	0.404698	0.40441	-0.0297013	5	0.00018715	13	0	4.5038	-1.20115e-05	13615.9
2	0	0	1	0	0	96.4177	0.385725	0.385434	-0.0321386	5	0.000134009	13	0	6.4011	-1.23873e-05	11992.9
2	0	0	1	0	0	98.3151	0.366751	0.366433	-0.0264192	5	7.52496e-05	13	0	8.2985	-9.68087e-06	13870
2	1	0	1	0	1	100.15	0.351623	0.351328	0.0324582	6	2.14401e-05	12	0	0.1299	1.14035e-05	10824
2	1	0	1	0	1	102.077	0.370895	0.370671	0.0248816	6	8.02725e-05	13	0	2.0572	9.22289e-06	14897.4
2	1	0	1	0	1	103.975	0.389869	0.389642	0.0353725	6	0.000136746	13	0	3.9546	1.37826e-05	11015.4
2	1	0	1	0	1	105.872	0.408843	0.408656	0.0187271	6	0.000189769	13	0	5.852	7.65294e-06	21821.6
2	1	0	1	0	1	107.77	0.427816	0.427563	0.0323642	6	0.000239601	13	0	7.7493	1.38377e-05	13211
2	1	0	1	0	1	109.667	0.446791	0.44657	0.0199354	6	0.00028703	13	0	9.6467	8.90255e-06	22400.9
2	0	0	1	0	1	111.571	0.434158	0.433867	-0.0172238	6	0.000262072	13	0	1.5579	-7.47283e-06	25190
2	0	0	1	0	1	113.468	0.415185	0.414979	-0.0268349	6	0.000216351	13	0	3.4552	-1.11359e-05	15464.1
2	0	0	1	0	1	115.366	0.39621	0.395958	-0.0294526	6	0.000165911	13	0	5.3526	-1.1662e-05	13443.9
2	0	0	1	0	1	117.263	0.377236	0.377007	-0.0268935	6	0.000110338	13	0	7.25	-1.0139e-05	14018.6
2	0	0	1	0	1	119.16	0.358263	0.357965	-0.0414549	6	4.88064e-05	13	0	9.1473	-1.48394e-05	8635.06
2	1	0	1	0	0	120.966	0.359811	0.359535	0.0389851	7	4.77373e-05	13	0	0.9488	1.40165e-05	9222.38
2	1	0	1	0	0	122.863	0.378784	0.378482	0.0231058	7	0.000105998	13	0	2.8461	8.74514e-06	16380.4
2	1	0	1	0	0	124.76	0.397759	0.397449	0.030956	7	0.000161055	13	0	4.7435	1.23034e-05	12839.2
2	1	0	1	0	0	126.658	0.416732	0.416514	0.026154	7	0.000212702	13	0	6.6408	1.08935e-05	15925.5
2	1	0	1	0	0	128.555	0.435706	0.435469	0.0237007	7	0.000261507	13	0	8.5382	1.03209e-05	18373.7
2	0	0	1	0	0	130.359	0.446241	0.446001	-0.0143085	7	0.000290238	13	0	0.2996	-6.3816e-06	31170.4
2	0	0	1	0	0	132.257	0.427267	0.42701	-0.0313171	7	0.000247875	13	0	2.197	-1.33727e-05	13635.1
2	0	0	1	0	0	134.154	0.408294	0.408047	-0.0185913	7	0.000200406	13	0	4.0944	-7.58612e-06	21948.2
2	0	0	1	0	0	136.051	0.38932	0.389033	-0.0369172	7	0.00014812	13	0	5.9918	-1.4362e-05	10538
2	0	0	1	0	0	137.949	0.370347	0.370078	-0.0245073	7	9.04807e-05	13	0	7.8891	-9.06962e-06	15100.7
2	0	0	1	0	0	139.846	0.351372	0.351145	-0.0423516	7	2.64824e-05	13	0	9.7865	-1.48716e-05	8291.18
2	1	0	1	0	1	141.671	0.366901	0.366647	0.0386769	8	7.14416e-05	13	0	1.6578	1.41808e-05	9479.75
2	1	0	1	0	1	143.569	0.385874	0.385609	0.0212258	8	0.000128671	13	0	3.5551	8.18488e-06	18167
2	1	0	1	0	1	145.466	0.404849	0.404603	0.0349791	8	0.000182369	13	0	5.4525	1.41527e-05	11567
2	1	0	1	0	1	147.363	0.423822	0.423587	0.0182313	8	0.00023285	13	0	7.3498	7.72256e-06	23234
2	1	0	1	0	1	149.261	0.442796	0.442566	0.0321392	8	0.000280642	13	0	9.2472	1.42237e-05	13770.3
2	0	0	1	0	1	151.165	0.438153	0.437902	-0.0296811	8	0.00027444	13	0	1.1584	-1.29974e-05	14753.6
2	0	0	1	0	1	153.062	0.419178	0.418896	-0.0168458	8	0.00022972	13	0	3.0558	-7.05662e-06	24866.5
2	0	0	1	0	1	154.959	0.400205	0.399921	-0.0356276	8	0.00018028	13	0	4.9531	-1.42482e-05	11225
2	0	0	1	0	1	156.857	0.381231	0.380944	-0.0220987	8	0.000125895	13	0	6.8505	-8.41838e-06	17238.3
2	0	0	1	0	1	158.754	0.362257	0.361972	-0.0416367	8	6.57059e-05	13	0	8.7479	-1.50713e-05	8693.58
2	1	0	1	0	0	160.619	0.356416	0.356138	0.0240703	9	4.07213e-05	13	0	0.5442	8.57235e-06	14795.8
2	1	0	1	0	0	162.517	0.375389	0.375158	0.0359057	9	9.92867e-05	13	0	2.4416	1.34703e-05	10448.4
2	1	0	1	0	0	164.414	0.394363	0.394142	0.0228793	9	0.00015502	13	0	4.339	9.0177e-06	17227
2	1	0	1	0	0	166.311	0.413336	0.413169	0.0326016	9	0.000207269	13	0	6.2363	1.347e-05	12673.3
2	1	0	1	0	0	168.209	0.432311	0.432077	0.0213689	9	0.000256435	13	0	8.1337	9.233e-06	20219.9
2	0	0	1	0	0	170.068	0.449087	0.448773	-0.0160953	9	0.000299223	13	0	0.000000000000000E+000	-7.22312e-06	27882.3
2	0	0	1	0	0	172.01	0.429664	0.429417	-0.0219791	9	0.000256889	13	0	1.9424	-9.4382e-06	19537.5
2	0	0	1	0	0	173.908	0.41069	0.410492	-0.0289635	9	0.000210038	13	0	3.8397	-1.18893e-05	14172.7
2	0	0	1	0	0	175.805	0.391716	0.391433	-0.0243196	9	0.000158389	13	0	5.7371	-9.51949e-06	16095.4
2	0	0	1	0	0	177.702	0.372743	0.372512	-0.0360336	9	0.00010145	13	0	7.6344	-1.3423e-05	10337.9
2	0	0	1	0	0	179.6	0.353769	0.353449	-0.0286683	9	3.83549e-05	13	0	9.5318	-1.01328e-05	12328.9
2	1	0	1	0	1	181.465	0.364904	0.36469	0.0383984	10	6.88398e-05	13	0	1.393	1.40035e-05	9497.52
2	1	0	1	0	1	183.362	0.383877	0.383609	0.0226937	10	0.000126402	13	0	3.2904	8.70551e-06	16903.7
2	1	0	1	0	1	185.259	0.402851	0.402616	0.0339411	10	0.000180472	13	0	5.1878	1.36652e-05	11862.2
2	1	0	1	0	1	187.157	0.421825	0.421563	0.0196809	10	0.00023128	13	0	7.0852	8.29674e-06	21419.9
2	1	0	1	0	1	189.054	0.440798	0.440581	0.0295765	10	0.000279337	13	0	8.9825	1.30308e-05	14896.3
2	0	0	1	0	1	190.958	0.440149	0.439879	-0.0239232	10	0.000282439	13	0	0.8938	-1.05233e-05	18387.1
2	0	0	1	0	1	192.856	0.421176	0.42093	-0.0226881	10	0.000238203	13	0	2.7912	-9.55009e-06	18552.9
2	0	0	1	0	1	194.753	0.402202	0.401925	-0.0282607	10	0.000189278	13	0	4.6886	-1.13587e-05	14222.1
2	0	0	1	0	1	196.65	0.383229	0.382975	-0.0299547	10	0.000135466	13	0	6.5859	-1.14719e-05	12785.1
2	0	0	1	0	1	198.548	0.364254	0.363928	-0.0320031	10	7.59282e-05	13	0	8.4833	-1.16468e-05	11371.6
2	0	0	0	0	1	199.971	0.35	0.349781	-0.0260971	10	2.68837e-05	13	0	9.9063	-9.12826e-06	13403.1