File: ACS_Catal_2026/Figures_Na_K/main_figures/data/EC/20251112_2-148_alpha_reproducibility/20251112_2-148_006_gamma_reproducibility_2_K2_02_PEIS_C02.mpt
EC-Lab ASCII FILE
Nb header lines : 63

Potentio Electrochemical Impedance Spectroscopy

Run on channel : 2 (SN 69290)
User :
CE vs. WE compliance from -10 V to 10 V
Electrode connection : standard
Potential control : Ewe
Ewe ctrl range : min = -1.00 V, max = 1.00 V
Safety Limits :
	Do not start on E overload
Acquisition started on : 11/12/2025 20:23:02.181
Loaded Setting File :  C:\Users\User\Documents\EC-Lab\Data\Yatsuzuka\20251112_2-148_alpha_reproducibility\20251112_2-148_002_alpha_reproducibility_2_K1.mps
Saved on :
	File : 20251112_2-148_006_gamma_reproducibility_2_K2_r_02_PEIS_C02.mpr
	Directory : C:\Users\User\Documents\EC-Lab\Data\Yatsuzuka\20251112_2-148_alpha_reproducibility\
	Host : 192.109.209.127
Device : SP-150e (SN .003883)
Address : 192.109.209.128
EC-Lab for windows v11.52 (software)
Internet server v11.52 (firmware)
Command interpretor v11.50 (firmware)
Electrode material :
Initial state :
Electrolyte :
Comments :
Electrode surface area : 0.001 cm2
Characteristic mass : 0.001 g
Equivalent Weight : 0.000 g/eq.
Density : 0.000 g/cm3
Volume (V) : 0.001 cm3
Cycle Definition : Charge/Discharge alternance
Mode                Single sine
E (V)               0.4500
vs.                 Ref
tE (h:m:s)          0:00:0.0000
record              0
dI                  0.000
unit dI             mA
dt (s)              0.000
fi                  500.000
unit fi             kHz
ff                  1.000
unit ff             Hz
Nd                  6
Points              per decade
spacing             Logarithmic
Va (mV)             10.0
pw                  0.10
Na                  2
corr                0
E range min (V)     -1.000
E range max (V)     1.000
I Range             Auto
Bandwidth           5
nc cycles           0
goto Ns'            0
nr cycles           0
inc. cycle          0

freq/Hz	Re(Z)/Ohm	-Im(Z)/Ohm	|Z|/Ohm	Phase(Z)/deg	time/s	<Ewe>/V	<I>/mA	Cs/uF	Cp/uF	cycle number	I Range	|Ewe|/V	|I|/A	Ns	(Q-Qo)/mA.h	Re(Y)/Ohm-1	Im(Y)/Ohm-1	|Y|/Ohm-1	Phase(Y)/deg	Re(C)/nF	Im(C)/nF	|C|/nF	Phase(C)/deg	Re(M)	Im(M)	|M|	Phase(M)/deg	Re(Permittivity)	Im(Permittivity)	|Permittivity|	Phase(Permittivity)/deg	Re(Resistivity)/Ohm.cm	Im(Resistivity)/Ohm.cm	|Resistivity|/Ohm.cm	Phase(Resistivity)/deg	Re(Conductivity)/mS/cm	Im(Conductivity)/mS/cm	|Conductivity|/mS/cm	Phase(Conductivity)/deg	Tan(Delta)	Loss Angle(Delta)/deg	dq/mA.h
500019	16.4308	-2.20555	16.5781	7.64527	202.13	0.449788	0.0173703	-0.144317	-0.00255434	1	10	0.00540349	0.000325941	0	2.98287e-05	0.0597842	-0.008025	0.0603204	-7.64527	-2.55434	19.0292	19.1999	-97.6453	0.0000000E+000	0.0000000E+000	0.0000000E+000	97.6453	0.0000000E+000	0.0000000E+000	0.0000000E+000	-97.6453	0.0000000E+000	0.0000000E+000	0.0000000E+000	7.64527	0.0000000E+000	0.0000000E+000	0.0000000E+000	-7.64527	7.44974	82.3547	2.98287e-05
231063	9.71255	-0.814161	9.74662	4.79165	202.974	0.449552	0.0178774	-0.84602	-0.00590327	1	10	0.0104276	0.00106986	0	3.63487e-05	0.102241	-0.00857043	0.1026	-4.79165	-5.90327	70.4233	70.6703	-94.7916	0.0000000E+000	0.0000000E+000	0.0000000E+000	94.7916	0.0000000E+000	0.0000000E+000	0.0000000E+000	-94.7916	0.0000000E+000	0.0000000E+000	0.0000000E+000	4.79165	0.0000000E+000	0.0000000E+000	0.0000000E+000	-4.79165	11.9295	85.2084	3.43221e-06
106786	8.86372	-0.11623	8.86448	0.751279	203.954	0.449551	0.0190539	-12.8229	-0.00220454	1	10	0.0108505	0.00122404	0	4.17362e-05	0.1128	-0.00147915	0.11281	-0.751279	-2.20455	168.118	168.132	-90.7513	0.0000000E+000	0.0000000E+000	0.0000000E+000	90.7513	0.0000000E+000	0.0000000E+000	0.0000000E+000	-90.7513	0.0000000E+000	0.0000000E+000	0.0000000E+000	0.751279	0.0000000E+000	0.0000000E+000	0.0000000E+000	-0.751279	76.2599	89.2487	2.90149e-06
49352.4	8.81157	0.0450219	8.81168	-0.292745	204.798	0.449542	0.0184107	71.6289	0.0018699	1	10	0.0106167	0.00120484	0	4.3419e-05	0.113484	0.000579838	0.113486	0.292745	1.86992	365.972	365.977	-89.7073	0.0000000E+000	0.0000000E+000	0.0000000E+000	89.7073	0.0000000E+000	0.0000000E+000	0.0000000E+000	-89.7073	0.0000000E+000	0.0000000E+000	0.0000000E+000	-0.292745	0.0000000E+000	0.0000000E+000	0.0000000E+000	0.292745	195.717	89.7073	6.573e-07
22806.6	8.8347	0.10522	8.83532	-0.68235	205.643	0.449563	0.0180434	66.3229	0.00940615	1	10	0.0104988	0.00118828	0	4.66149e-05	0.113174	0.00134788	0.113182	0.68235	9.40616	789.782	789.838	-89.3177	0.0000000E+000	0.0000000E+000	0.0000000E+000	89.3177	0.0000000E+000	0.0000000E+000	0.0000000E+000	-89.3177	0.0000000E+000	0.0000000E+000	0.0000000E+000	-0.68235	0.0000000E+000	0.0000000E+000	0.0000000E+000	0.68235	83.9644	89.3177	1.10006e-06
10540.4	8.86291	0.16553	8.86446	-1.06997	206.488	0.449559	0.0190427	91.2195	0.0318079	1	10	0.0103199	0.00116419	0	4.80494e-05	0.11279	0.00210655	0.11281	1.06997	31.8079	1703.08	1703.38	-88.93	0.0000000E+000	0.0000000E+000	0.0000000E+000	88.93	0.0000000E+000	0.0000000E+000	0.0000000E+000	-88.93	0.0000000E+000	0.0000000E+000	0.0000000E+000	-1.06997	0.0000000E+000	0.0000000E+000	0.0000000E+000	1.06997	53.5427	88.93	1.47881e-06
4871.56	8.90632	0.26497	8.91026	-1.70409	207.48	0.449553	0.0189999	123.298	0.109036	1	10	0.0108474	0.0012174	0	5.11188e-05	0.112181	0.00333746	0.11223	1.70409	109.036	3664.96	3666.59	-88.2959	0.0000000E+000	0.0000000E+000	0.0000000E+000	88.2959	0.0000000E+000	0.0000000E+000	0.0000000E+000	-88.2959	0.0000000E+000	0.0000000E+000	0.0000000E+000	-1.70409	0.0000000E+000	0.0000000E+000	0.0000000E+000	1.70409	33.6125	88.2959	2.34785e-06
2250.72	8.96275	0.473156	8.97523	-3.02192	208.632	0.449555	0.0185803	149.449	0.415348	1	10	0.0103299	0.00115093	0	5.61856e-05	0.111263	0.00587372	0.111418	3.02192	415.348	7867.72	7878.67	-86.9781	0.0000000E+000	0.0000000E+000	0.0000000E+000	86.9781	0.0000000E+000	0.0000000E+000	0.0000000E+000	-86.9781	0.0000000E+000	0.0000000E+000	0.0000000E+000	-3.02192	0.0000000E+000	0.0000000E+000	0.0000000E+000	3.02192	18.9425	86.9781	1.65515e-06
1040.33	9.05828	0.905624	9.10344	-5.70931	209.562	0.449555	0.0184797	168.927	1.6718	1	10	0.0104546	0.00114842	0	6.00671e-05	0.109304	0.0109279	0.109849	5.70931	1671.8	16721.8	16805.1	-84.2907	0.0000000E+000	0.0000000E+000	0.0000000E+000	84.2907	0.0000000E+000	0.0000000E+000	0.0000000E+000	-84.2907	0.0000000E+000	0.0000000E+000	0.0000000E+000	-5.70931	0.0000000E+000	0.0000000E+000	0.0000000E+000	5.70931	10.0023	84.2907	2.47002e-06
480.769	9.16543	1.77377	9.33549	-10.953	210.493	0.449557	0.0178028	186.632	6.73763	1	10	0.0104696	0.00112148	0	6.39221e-05	0.105167	0.0203528	0.107118	10.953	6737.63	34814.7	35460.6	-79.047	0.0000000E+000	0.0000000E+000	0.0000000E+000	79.047	0.0000000E+000	0.0000000E+000	0.0000000E+000	-79.047	0.0000000E+000	0.0000000E+000	0.0000000E+000	-10.953	0.0000000E+000	0.0000000E+000	0.0000000E+000	10.953	5.1672	79.047	1.99088e-06
222.061	9.3615	3.58428	10.0242	-20.9506	211.417	0.449548	0.0176033	199.961	25.5653	1	10	0.0104813	0.0010456	0	6.87596e-05	0.0931634	0.0356699	0.0997585	20.9506	25565.3	66771.9	71498.7	-69.0494	0.0000000E+000	0.0000000E+000	0.0000000E+000	69.0494	0.0000000E+000	0.0000000E+000	0.0000000E+000	-69.0494	0.0000000E+000	0.0000000E+000	0.0000000E+000	-20.9506	0.0000000E+000	0.0000000E+000	0.0000000E+000	20.9506	2.61182	69.0494	3.21243e-06
102.667	9.67546	7.3788	12.168	-37.3302	212.354	0.449552	0.0183529	210.089	77.256	1	10	0.0104759	0.000860934	0	7.23188e-05	0.0653477	0.0498361	0.0821825	37.3302	77256	101302	127399	-52.6698	0.0000000E+000	0.0000000E+000	0.0000000E+000	52.6698	0.0000000E+000	0.0000000E+000	0.0000000E+000	-52.6698	0.0000000E+000	0.0000000E+000	0.0000000E+000	-37.3302	0.0000000E+000	0.0000000E+000	0.0000000E+000	37.3302	1.31125	52.6698	1.77094e-06
47.4443	10.2579	15.3629	18.4728	-56.2687	213.265	0.44954	0.0171092	218.355	151.024	1	10	0.0104691	0.000566732	0	7.60831e-05	0.0300604	0.0450204	0.0541337	56.2687	151024	100839	181595	-33.7313	0.0000000E+000	0.0000000E+000	0.0000000E+000	33.7313	0.0000000E+000	0.0000000E+000	0.0000000E+000	-33.7313	0.0000000E+000	0.0000000E+000	0.0000000E+000	-56.2687	0.0000000E+000	0.0000000E+000	0.0000000E+000	56.2687	0.667706	33.7313	1.65002e-06
21.9144	11.4039	32.0862	34.0525	-70.4341	214.372	0.449544	0.00044781	226.345	200.96	1	11	0.010472	0.000307524	0	7.71565e-05	0.00983455	0.0276707	0.0293665	70.4341	200960	71424	213276	-19.5659	0.0000000E+000	0.0000000E+000	0.0000000E+000	19.5659	0.0000000E+000	0.0000000E+000	0.0000000E+000	-19.5659	0.0000000E+000	0.0000000E+000	0.0000000E+000	-70.4341	0.0000000E+000	0.0000000E+000	0.0000000E+000	70.4341	0.355413	19.5659	6.88873e-07
10.1329	14.4189	66.931	68.4665	-77.8426	215.299	0.449566	0.000816225	234.67	224.262	1	11	0.0104552	0.000152705	0	7.78193e-05	0.00307593	0.0142781	0.0146057	77.8426	224262	48312.6	229407	-12.1574	0.0000000E+000	0.0000000E+000	0.0000000E+000	12.1574	0.0000000E+000	0.0000000E+000	0.0000000E+000	-12.1574	0.0000000E+000	0.0000000E+000	0.0000000E+000	-77.8426	0.0000000E+000	0.0000000E+000	0.0000000E+000	77.8426	0.215429	12.1574	2.4871e-07
4.68375	18.7426	140.724	141.967	-82.4136	216.415	0.449577	0.000154251	241.467	237.258	1	12	0.0104686	7.37397e-05	0	7.76974e-05	0.000929943	0.00698224	0.0070439	82.4136	237258	31599.6	239353	-7.5864	0.0000000E+000	0.0000000E+000	0.0000000E+000	7.5864	0.0000000E+000	0.0000000E+000	0.0000000E+000	-7.5864	0.0000000E+000	0.0000000E+000	0.0000000E+000	-82.4136	0.0000000E+000	0.0000000E+000	0.0000000E+000	82.4136	0.133187	7.5864	5.86051e-07
2.16533	28.1906	294.185	295.532	-84.5263	218.131	0.449574	0.000347277	249.848	247.575	1	12	0.0104582	3.53875e-05	0	7.6814e-05	0.000322771	0.0033683	0.00338373	84.5263	247575	23724.2	248709	-5.47373	0.0000000E+000	0.0000000E+000	0.0000000E+000	5.47373	0.0000000E+000	0.0000000E+000	0.0000000E+000	-5.47373	0.0000000E+000	0.0000000E+000	0.0000000E+000	-84.5263	0.0000000E+000	0.0000000E+000	0.0000000E+000	84.5263	0.0958264	5.47372	-6.96523e-07
1.00006	48.1349	617.141	619.016	-85.5402	222.471	0.449574	0.00010852	257.874	256.315	1	13	0.010458	1.68945e-05	0	7.74101e-05	0.000125619	0.00161058	0.00161547	85.5402	256315	19991.7	257093	-4.45985	0.0000000E+000	0.0000000E+000	0.0000000E+000	4.45985	0.0000000E+000	0.0000000E+000	0.0000000E+000	-4.45985	0.0000000E+000	0.0000000E+000	0.0000000E+000	-85.5402	0.0000000E+000	0.0000000E+000	0.0000000E+000	85.5402	0.0779966	4.45984	6.10728e-07