File: ACS_Catal_2026/Figures_Na_K/main_figures/data/EC/20251112_2-148_alpha_reproducibility/20251112_2-148_003_alpha_Na_first_1_Na2_03_CVA_C01.mpt
EC-Lab ASCII FILE
Nb header lines : 66

Cyclic Voltammetry Advanced

Run on channel : 1 (SN 69187)
User :
CE vs. WE compliance from -10 V to 10 V
Electrode connection : standard
Potential control : Ewe
Ewe ctrl range : min = -1.00 V, max = 1.00 V
Safety Limits :
	Do not start on E overload
Acquisition started on : 11/12/2025 17:08:42.026
Loaded Setting File :  C:\Users\User\Documents\EC-Lab\Data\Yatsuzuka\20251030_2-147_gamma_reproducibility\20251030_2-147_001_gamma1_K_1.mps
Saved on :
	File : 20251112_2-148_003_alpha_Na_first_1_Na2_03_CVA_C01.mpr
	Directory : C:\Users\User\Documents\EC-Lab\Data\Yatsuzuka\20251112_2-148_alpha_reproducibility\
	Host : 192.109.209.127
Device : SP-150e (SN .003883)
Address : 192.109.209.128
EC-Lab for windows v11.52 (software)
Internet server v11.52 (firmware)
Command interpretor v11.50 (firmware)
Electrode material :
Initial state :
Electrolyte :
Comments :
Electrode surface area : 0.001 cm2
Characteristic mass : 0.001 g
Equivalent Weight : 0.000 g/eq.
Density : 0.000 g/cm3
Volume (V) : 0.001 cm3
Cycle Definition : Charge/Discharge alternance
Ei (V)              0.450
vs.                 Ref
ti (h:m:s)          0:00:10.0000
dti (s)             0.0000
dE/dt               5.000
dE/dt unit          mV/s
E1 (V)              0.700
vs.                 Ref
t1 (h:m:s)          0:00:0.0000
dt1 (s)             0.1000
Step percent        50
N                   10
E range min (V)     -1.000
E range max (V)     1.000
I Range             10 mA
I Range min         Unset
I Range max         Unset
I Range init        Unset
Bandwidth           5
E2 (V)              0.450
vs.                 Ref
t2 (h:m:s)          0:00:0.0000
dt2 (s)             0.1000
nc cycles           14
nr                  1
Reverse Scan        0
Ef (V)              0.000
vs.                 Eoc
tf (h:m:s)          0:00:0.0000
dtf (s)             0.1000

mode	ox/red	error	control changes	Ns changes	counter inc.	time/s	control/V	Ewe/V	<I>/mA	cycle number	(Q-Qo)/C	I Range	Ns	step time/s	P/W
2	0	0	1	0	0	231.665	0.449961	0.449716	-0.0150746	1	0.0000000E+000	11	0	0.000000000000000E+000	-6.77929e-06
2	0	0	1	0	0	244.502	0.514147	0.51391	0.0117482	1	0.000166851	11	0	12.7822	6.03751e-06
2	1	0	1	0	0	257.385	0.578558	0.578342	0.0150634	1	0.000345134	11	0	25.6644	8.7118e-06
2	1	0	1	0	0	270.267	0.642968	0.642781	0.0607023	1	0.000728091	11	0	38.5465	3.90183e-05
2	1	0	1	0	0	282.931	0.693698	0.693459	0.350989	1	0.00350586	11	0	51.2112	0.000243396
2	1	0	1	0	0	295.814	0.629287	0.629028	0.0182351	1	0.00506278	11	0	64.0933	1.14704e-05
2	0	0	1	0	0	308.696	0.564877	0.564686	-0.00754034	1	0.00505827	11	0	6.9903	-4.25793e-06
2	0	0	1	0	0	321.578	0.500466	0.50019	-0.00976896	1	0.00493244	11	0	19.8725	-4.88634e-06
2	1	0	1	0	1	334.317	0.463267	0.463024	0.0124103	2	0.00484661	11	0	2.5964	5.74628e-06
2	0	0	1	0	1	347.199	0.527678	0.527478	0.0104572	2	0.00500279	11	0	15.4785	5.51596e-06
2	1	0	1	0	1	360.082	0.592089	0.591836	0.0150735	2	0.0051757	11	0	28.3607	8.92105e-06
2	1	0	1	0	1	372.964	0.656499	0.6563	0.091389	2	0.00568062	11	0	41.2428	5.99786e-05
2	1	0	1	0	1	385.618	0.680217	0.680019	0.202953	2	0.00890751	11	0	53.8975	0.000138012
2	1	0	1	0	1	398.501	0.615806	0.615557	0.00590669	2	0.00972962	11	0	66.7797	3.63591e-06
2	0	0	0	0	1	411.383	0.551395	0.551154	-0.00879476	2	0.00966876	11	0	10.3856	-4.84727e-06
2	0	0	1	0	1	424.265	0.486985	0.486803	-0.0120512	2	0.00953617	11	0	23.2677	-5.86655e-06
2	1	0	1	0	0	437.004	0.476749	0.476505	0.0100544	3	0.0095114	11	0	5.2927	4.79096e-06
2	1	0	0	0	0	449.887	0.541159	0.540916	0.0130167	3	0.00966693	11	0	18.1748	7.04096e-06
2	1	0	1	0	0	462.769	0.60557	0.605355	0.0211688	3	0.00985428	11	0	31.0569	1.28146e-05
2	1	0	1	0	0	475.651	0.669981	0.669755	0.148066	3	0.0106126	11	0	43.9391	9.91681e-05
2	1	0	1	0	0	488.306	0.666735	0.666499	0.109831	3	0.013878	11	0	56.5938	7.32023e-05
2	0	0	1	0	0	501.188	0.602325	0.602042	-0.00218168	3	0.0142846	11	0	0.2996	-1.31346e-06
2	1	0	1	0	0	514.07	0.537913	0.53766	-0.0084445	3	0.0141938	11	0	13.1818	-4.54027e-06
2	0	0	1	0	0	526.952	0.473503	0.473227	-0.0106719	3	0.0140556	11	0	26.0639	-5.05021e-06
2	1	0	1	0	1	539.691	0.49023	0.490044	0.0117552	4	0.0140934	11	0	7.9889	5.76057e-06
2	1	0	1	0	1	552.574	0.554641	0.554427	0.01167	4	0.0142489	11	0	20.8711	6.47019e-06
2	1	0	1	0	1	565.456	0.619051	0.618847	0.025803	4	0.0144642	11	0	33.7532	1.59681e-05
2	1	0	1	0	1	578.338	0.683461	0.683269	0.247361	4	0.0156719	11	0	46.6353	0.000169014
2	1	0	1	0	1	590.993	0.653253	0.653068	0.0563661	4	0.0185978	11	0	59.2901	3.68109e-05
2	1	0	0	0	1	603.875	0.588843	0.588604	-0.0034351	4	0.0187712	11	0	2.6963	-2.02191e-06
2	0	0	1	0	1	616.757	0.524433	0.524189	-0.0114882	4	0.0186621	11	0	15.5784	-6.02199e-06
2	1	0	1	0	1	629.639	0.460021	0.459788	-0.0102051	4	0.0185198	11	0	28.4606	-4.69219e-06
2	1	0	0	0	0	642.379	0.503711	0.503485	0.0136299	5	0.0186223	11	0	10.6852	6.86244e-06
2	1	0	1	0	0	655.261	0.568122	0.56793	0.0131146	5	0.0187791	11	0	23.5673	7.44815e-06
2	1	0	1	0	0	668.143	0.632533	0.632309	0.0370339	5	0.0190445	11	0	36.4495	2.34169e-05
2	1	0	0	0	0	681.025	0.696943	0.696743	0.398193	5	0.021005	11	0	49.3316	0.000277439
2	1	0	1	0	0	693.68	0.639773	0.63957	0.0280652	5	0.0231535	11	0	61.9863	1.79497e-05
2	1	0	1	0	0	706.562	0.575361	0.575096	-0.00568452	5	0.0231964	11	0	5.6922	-3.26914e-06
2	0	0	1	0	0	719.444	0.510951	0.510718	-0.0094906	5	0.0230762	11	0	18.5743	-4.84702e-06
2	1	0	1	0	1	732.183	0.452782	0.452543	0.00927661	6	0.0229425	11	0	0.4993	4.19806e-06
2	1	0	1	0	1	745.066	0.517193	0.516953	0.0137546	6	0.0230949	11	0	13.3815	7.11048e-06
2	1	0	1	0	1	757.948	0.581603	0.581358	0.0148568	6	0.0232555	11	0	26.2636	8.63713e-06
2	1	0	1	0	1	770.83	0.646014	0.645817	0.057313	6	0.0236099	11	0	39.1457	3.70137e-05
2	1	0	1	0	1	783.485	0.690702	0.690504	0.294247	6	0.0263461	11	0	51.8004	0.000203178
2	1	0	0	0	1	796.367	0.626291	0.62607	0.0103204	6	0.0276077	11	0	64.6826	6.46127e-06
2	1	0	1	0	1	809.249	0.561881	0.561613	-0.00665431	6	0.0275769	11	0	8.2885	-3.73715e-06
2	0	0	1	0	1	822.131	0.497469	0.497241	-0.00935386	6	0.0274494	11	0	21.1707	-4.65113e-06
2	1	0	0	0	0	834.871	0.466263	0.465965	0.0133665	7	0.0273759	11	0	3.1956	6.2283e-06
2	1	0	1	0	0	847.753	0.530674	0.530435	0.013378	7	0.027529	11	0	16.0777	7.09615e-06
2	1	0	1	0	0	860.635	0.595085	0.594865	0.018073	7	0.0276989	11	0	28.9599	1.0751e-05
2	1	0	0	0	0	873.517	0.659495	0.659237	0.0978141	7	0.0282131	11	0	41.842	6.44827e-05
2	1	0	1	0	0	886.172	0.677221	0.676966	0.1674	7	0.0313398	11	0	54.4967	0.000113324
2	1	0	0	0	0	899.054	0.61281	0.612561	0.00253925	7	0.032004	11	0	67.3788	1.55544e-06
2	0	0	1	0	0	911.936	0.548399	0.548189	-0.00780344	7	0.0319311	11	0	11.1845	-4.27776e-06
2	0	0	1	0	0	924.818	0.483989	0.483809	-0.00966515	7	0.0317978	11	0	24.0666	-4.67609e-06
2	1	0	1	0	1	937.558	0.479745	0.479504	0.0132071	8	0.0317871	11	0	5.8919	6.33285e-06
2	1	0	1	0	1	950.44	0.544155	0.543899	0.0109098	8	0.0319407	11	0	18.774	5.9338e-06
2	1	0	1	0	1	963.322	0.608565	0.60833	0.018711	8	0.0321274	11	0	31.6561	1.13825e-05
2	1	0	1	0	1	976.204	0.672977	0.672741	0.15982	8	0.0329272	11	0	44.5383	0.000107517
2	1	0	1	0	1	988.859	0.66374	0.663552	0.0915433	8	0.0360337	11	0	57.1929	6.07437e-05
2	1	0	1	0	1	1001.74	0.599329	0.599094	-0.00190485	8	0.0363565	11	0	1.0985	-1.14118e-06
2	1	0	1	0	1	1014.62	0.534918	0.534707	-0.00821785	8	0.0362599	11	0	13.9806	-4.39415e-06
2	0	0	0	0	1	1027.51	0.470507	0.470279	-0.0134165	8	0.0361217	11	0	26.8628	-6.30951e-06
2	1	0	1	0	0	1040.24	0.493226	0.492988	0.0126706	9	0.0361735	11	0	8.5881	6.24643e-06
2	0	0	1	0	0	1053.13	0.557637	0.557437	0.0103671	9	0.0363272	11	0	21.4703	5.77901e-06
2	1	0	0	0	0	1066.01	0.622047	0.621829	0.0293424	9	0.0365446	11	0	34.3524	1.8246e-05
2	1	0	1	0	0	1078.89	0.686457	0.68627	0.267115	9	0.037842	11	0	47.2345	0.000183313
2	1	0	0	0	0	1091.55	0.650258	0.650042	0.0487652	9	0.0405685	11	0	59.8892	3.16994e-05
2	0	0	1	0	0	1104.43	0.585848	0.585634	-0.00476255	9	0.0406944	11	0	3.6948	-2.78911e-06
2	0	0	1	0	0	1117.31	0.521437	0.521207	-0.011389	9	0.0405823	11	0	16.577	-5.93602e-06
2	0	0	0	0	0	1130.19	0.457026	0.456832	-0.0126064	9	0.0404399	11	0	29.4591	-5.75901e-06
2	1	0	1	0	1	1142.93	0.506707	0.506472	0.0137517	10	0.0405561	11	0	11.2844	6.96483e-06
2	1	0	1	0	1	1155.81	0.571118	0.570896	0.0111308	10	0.0407124	11	0	24.1665	6.35451e-06
2	1	0	1	0	1	1168.7	0.635529	0.635315	0.0415615	10	0.040985	11	0	37.0487	2.64047e-05
2	1	0	1	0	1	1181.56	0.699839	0.699558	0.430343	10	0.0431051	11	0	49.9108	0.00030105
2	1	0	1	0	1	1194.23	0.636777	0.63656	0.0212494	10	0.0449765	11	0	62.5855	1.35265e-05
2	0	0	1	0	1	1207.11	0.572366	0.572154	-0.00719507	10	0.044992	11	0	6.3911	-4.11668e-06
2	1	0	1	0	1	1220	0.507956	0.507762	-0.00864137	10	0.0448713	11	0	19.2732	-4.38776e-06
2	1	0	1	0	0	1232.74	0.455778	0.455522	0.00946906	11	0.0447518	11	0	1.0985	4.31337e-06
2	0	0	1	0	0	1245.62	0.520189	0.51993	0.0106028	11	0.0449045	11	0	13.9807	5.51269e-06
2	1	0	0	0	0	1258.5	0.584599	0.584381	0.0157463	11	0.0450651	11	0	26.8628	9.20184e-06
2	1	0	1	0	0	1271.38	0.64901	0.648797	0.0618765	11	0.0454356	11	0	39.7449	4.01453e-05
2	1	0	0	0	0	1284.04	0.687706	0.687494	0.258702	11	0.0482494	11	0	52.3996	0.000177856
2	1	0	1	0	0	1296.92	0.623296	0.623077	0.00617011	11	0.0493154	11	0	65.2817	3.84445e-06
2	1	0	1	0	0	1309.8	0.558885	0.558671	-0.00836969	11	0.0492701	11	0	9.387	-4.6759e-06
2	1	0	0	0	0	1322.68	0.494474	0.494192	-0.00911547	11	0.0491418	11	0	22.2691	-4.5048e-06
2	1	0	1	0	1	1335.42	0.469259	0.46909	0.0135079	12	0.0490826	11	0	3.7947	6.33644e-06
2	1	0	1	0	1	1348.31	0.53367	0.533476	0.0117653	12	0.0492348	11	0	16.6769	6.2765e-06
2	1	0	1	0	1	1361.19	0.598081	0.597881	0.018588	12	0.0494051	11	0	29.5591	1.11134e-05
2	1	0	1	0	1	1374.07	0.662491	0.6623	0.105775	12	0.0499529	11	0	42.4412	7.00547e-05
2	1	0	1	0	1	1386.72	0.674224	0.673975	0.144504	12	0.0530558	11	0	55.0959	9.73923e-05
2	0	0	1	0	1	1399.61	0.609814	0.609569	-0.00145601	12	0.0536097	11	0	0.000000000000000E+000	-8.87537e-07
2	1	0	1	0	1	1412.49	0.545404	0.545161	-0.00819312	12	0.0535285	11	0	11.8835	-4.46657e-06
2	0	0	1	0	1	1425.37	0.480993	0.480782	-0.00963881	12	0.0533947	11	0	24.7657	-4.63416e-06
2	1	0	1	0	0	1438.11	0.48274	0.482494	0.0137798	13	0.0533971	11	0	6.491	6.64866e-06
2	1	0	0	0	0	1450.99	0.547151	0.54693	0.0130298	13	0.053549	11	0	19.3732	7.12641e-06
2	1	0	1	0	0	1463.88	0.611562	0.611358	0.0216921	13	0.0537372	11	0	32.2553	1.32616e-05
2	1	0	1	0	0	1476.76	0.675973	0.675741	0.177853	13	0.0546006	11	0	45.1375	0.000120182
2	1	0	1	0	0	1489.41	0.660744	0.660463	0.0772694	13	0.0576046	11	0	57.7921	5.10336e-05
2	0	0	1	0	0	1502.29	0.596332	0.596127	-0.00566222	13	0.0578602	11	0	1.6977	-3.3754e-06
2	0	0	0	0	0	1515.18	0.531922	0.531663	-0.0100002	13	0.0577584	11	0	14.5798	-5.31672e-06
2	1	0	1	0	0	1528.06	0.467512	0.467253	-0.00997004	13	0.0576197	11	0	27.4619	-4.65853e-06
2	1	0	1	0	1	1540.8	0.496222	0.495978	0.0135611	14	0.0576848	11	0	9.1873	6.72602e-06
2	1	0	0	0	1	1553.68	0.560632	0.560409	0.0130485	14	0.0578376	11	0	22.0694	7.31251e-06
2	1	0	1	0	1	1566.56	0.625043	0.624835	0.0288494	14	0.05806	11	0	34.9516	1.80261e-05
2	1	0	1	0	1	1579.44	0.689454	0.689241	0.292652	14	0.0594754	11	0	47.8337	0.000201708
2	1	0	1	0	1	1592.1	0.647262	0.647068	0.0363259	14	0.0620001	11	0	60.4884	2.35054e-05
2	0	0	1	0	1	1604.98	0.582852	0.582624	-0.00797849	14	0.0620877	11	0	4.3939	-4.64846e-06
2	0	0	1	0	1	1617.86	0.51844	0.518205	-0.0106367	14	0.0619738	11	0	17.2761	-5.51199e-06
2	1	0	1	0	1	1630.75	0.45403	0.453804	-0.0106446	14	0.0618308	11	0	30.1582	-4.83054e-06
2	1	0	1	0	0	1643.48	0.509702	0.509458	0.0126953	15	0.0619599	11	0	11.8835	6.4677e-06
2	1	0	1	0	0	1656.37	0.574114	0.573895	0.0138315	15	0.0621153	11	0	24.7657	7.9378e-06
2	1	0	1	0	0	1669.25	0.638524	0.638282	0.0417882	15	0.0623979	11	0	37.6478	2.66726e-05
2	1	0	1	0	0	1681.9	0.698192	0.697969	0.38885	15	0.0646093	11	0	50.3025	0.000271405
2	1	0	1	0	0	1694.79	0.63378	0.633562	0.0153817	15	0.0662965	11	0	63.1847	9.74526e-06
2	1	0	0	0	0	1707.67	0.56937	0.569172	-0.00584195	15	0.0662916	11	0	7.0902	-3.32508e-06
2	0	0	1	0	0	1720.55	0.50496	0.504685	-0.0121706	15	0.066169	11	0	19.9723	-6.1423e-06
2	1	0	0	0	0	1731.54	0.450011	0.449792	-0.00123679	15	0.0660442	11	0	30.9592	-5.56299e-07