File: ACS_Catal_2026/Figures_Na_K/main_figures/data/EC/20251112_2-148_alpha_reproducibility/20251112_2-148_006_gamma_reproducibility_2_K2_03_CVA_C02.mpt
EC-Lab ASCII FILE
Nb header lines : 66

Cyclic Voltammetry Advanced

Run on channel : 2 (SN 69290)
User :
CE vs. WE compliance from -10 V to 10 V
Electrode connection : standard
Potential control : Ewe
Ewe ctrl range : min = -1.00 V, max = 1.00 V
Safety Limits :
	Do not start on E overload
Acquisition started on : 11/12/2025 20:23:02.181
Loaded Setting File :  C:\Users\User\Documents\EC-Lab\Data\Yatsuzuka\20251112_2-148_alpha_reproducibility\20251112_2-148_002_alpha_reproducibility_2_K1.mps
Saved on :
	File : 20251112_2-148_006_gamma_reproducibility_2_K2_r_03_CVA_C02.mpr
	Directory : C:\Users\User\Documents\EC-Lab\Data\Yatsuzuka\20251112_2-148_alpha_reproducibility\
	Host : 192.109.209.127
Device : SP-150e (SN .003883)
Address : 192.109.209.128
EC-Lab for windows v11.52 (software)
Internet server v11.52 (firmware)
Command interpretor v11.50 (firmware)
Electrode material :
Initial state :
Electrolyte :
Comments :
Electrode surface area : 0.001 cm2
Characteristic mass : 0.001 g
Equivalent Weight : 0.000 g/eq.
Density : 0.000 g/cm3
Volume (V) : 0.001 cm3
Cycle Definition : Charge/Discharge alternance
Ei (V)              0.450
vs.                 Ref
ti (h:m:s)          0:00:10.0000
dti (s)             0.0000
dE/dt               5.000
dE/dt unit          mV/s
E1 (V)              0.700
vs.                 Ref
t1 (h:m:s)          0:00:0.0000
dt1 (s)             0.1000
Step percent        50
N                   10
E range min (V)     -1.000
E range max (V)     1.000
I Range             10 mA
I Range min         Unset
I Range max         Unset
I Range init        Unset
Bandwidth           5
E2 (V)              0.450
vs.                 Ref
t2 (h:m:s)          0:00:0.0000
dt2 (s)             0.1000
nc cycles           14
nr                  1
Reverse Scan        0
Ef (V)              0.000
vs.                 Eoc
tf (h:m:s)          0:00:0.0000
dtf (s)             0.1000

mode	ox/red	error	control changes	Ns changes	counter inc.	time/s	control/V	Ewe/V	<I>/mA	cycle number	(Q-Qo)/C	I Range	Ns	step time/s	P/W
2	1	0	0	0	0	232.601	0.450021	0.44963	0.0059486	1	0.0000000E+000	11	0	0.000000000000000E+000	2.67467e-06
2	1	0	1	0	0	245.541	0.514718	0.514282	0.00319353	1	4.34284e-05	11	0	12.8847	1.64238e-06
2	1	0	1	0	0	258.526	0.579642	0.579203	0.00404088	1	9.01357e-05	11	0	25.8694	2.34049e-06
2	1	0	0	0	0	271.51	0.644565	0.644094	0.0443749	1	0.000265487	11	0	38.854	2.85816e-05
2	1	0	0	0	0	284.246	0.691759	0.691336	0.335663	1	0.00299918	11	0	51.5892	0.000232056
2	1	0	1	0	0	297.23	0.626836	0.626386	0.0153663	1	0.00457371	11	0	64.5738	9.62521e-06
2	0	0	0	0	0	310.215	0.561913	0.561464	0.000569207	1	0.00462147	11	0	77.5584	3.19589e-07
2	0	0	1	0	0	323.199	0.49699	0.496491	0.000113872	1	0.00462404	11	0	0.0999	5.65364e-08
2	1	0	1	0	1	335.953	0.466825	0.466336	0.0027835	2	0.00463262	11	0	3.3611	1.29804e-06
2	1	0	1	0	1	348.938	0.531748	0.531355	0.00274002	2	0.00467011	11	0	16.3457	1.45592e-06
2	1	0	1	0	1	361.923	0.596671	0.596222	0.00453481	2	0.0047131	11	0	29.3303	2.70375e-06
2	1	0	1	0	1	374.907	0.661594	0.661189	0.105599	2	0.00511174	11	0	42.3149	6.98209e-05
2	1	0	0	0	1	387.633	0.674779	0.674337	0.181832	2	0.00851906	11	0	55.0402	0.000122616
2	1	0	1	0	1	400.617	0.609856	0.60942	0.0050199	2	0.009259	11	0	68.0248	3.05923e-06
2	1	0	0	0	1	413.602	0.544933	0.544506	0.000338522	2	0.00927551	11	0	81.0094	1.84328e-07
2	1	0	1	0	1	426.586	0.48001	0.479551	8.31876e-05	2	0.0092762	11	0	0.000000000000000E+000	3.98927e-08
2	1	0	1	0	0	439.34	0.483806	0.483382	0.00265588	3	0.00929418	11	0	6.7571	1.2838e-06
2	1	0	1	0	0	452.325	0.548729	0.548306	0.00273081	3	0.00933121	11	0	19.7417	1.49732e-06
2	1	0	1	0	0	465.31	0.613651	0.613202	0.00819488	3	0.0093844	11	0	32.7263	5.02512e-06
2	1	0	1	0	0	478.294	0.678574	0.678149	0.216749	3	0.0102937	11	0	45.7109	0.000146988
2	1	0	1	0	0	491.019	0.6578	0.657386	0.0874437	3	0.0136104	11	0	58.4361	5.74842e-05
2	1	0	1	0	0	504.004	0.592876	0.592409	0.00172344	3	0.0139135	11	0	71.4208	1.02098e-06
2	0	0	0	0	0	516.989	0.527953	0.527483	0.000232783	3	0.0139205	11	0	0.4994	1.22789e-07
2	1	0	1	0	0	529.973	0.46303	0.462544	1.4387e-05	3	0.0139203	11	0	0.5993	6.65463e-09
2	1	0	1	0	1	542.727	0.500786	0.500308	0.00257563	4	0.0139482	11	0	10.1431	1.28861e-06
2	1	0	1	0	1	555.712	0.565709	0.565234	0.00290642	4	0.0139849	11	0	23.1277	1.64281e-06
2	1	0	1	0	1	568.697	0.630632	0.630192	0.02006	4	0.0140713	11	0	36.1123	1.26416e-05
2	1	0	1	0	1	581.681	0.695555	0.6951	0.388477	4	0.015946	11	0	49.0969	0.000270031
2	1	0	1	0	1	594.406	0.64082	0.6404	0.0349802	4	0.0184522	11	0	61.8221	2.24013e-05
2	1	0	1	0	1	607.391	0.575897	0.575414	0.000837484	4	0.018559	11	0	74.8067	4.819e-07
2	1	0	1	0	1	620.376	0.510974	0.510467	0.000151251	4	0.0185616	11	0	0.1997	7.72089e-08
2	1	0	1	0	0	633.13	0.452842	0.452382	0.00242638	5	0.0185612	11	0	0.5544	1.09765e-06
2	1	0	0	0	0	646.114	0.517765	0.517325	0.00265383	5	0.0185966	11	0	13.539	1.37289e-06
2	1	0	1	0	0	659.099	0.582688	0.582255	0.0032948	5	0.0186343	11	0	26.5236	1.91841e-06
2	1	0	0	0	0	672.084	0.647611	0.647153	0.0513941	5	0.018822	11	0	39.5082	3.32598e-05
2	1	0	1	0	0	684.809	0.688762	0.688319	0.304134	5	0.0217731	11	0	52.2335	0.000209342
2	1	0	1	0	0	697.793	0.623839	0.623415	0.0117586	5	0.0231548	11	0	65.2181	7.33048e-06
2	1	0	1	0	0	710.778	0.558916	0.558511	0.000493926	5	0.02319	11	0	78.2027	2.75863e-07
2	0	0	1	0	0	723.763	0.493994	0.493534	6.52008e-05	5	0.0231916	11	0	0.000000000000000E+000	3.21788e-08
2	0	0	1	0	1	736.517	0.469822	0.469374	0.00264345	6	0.0232014	11	0	3.9504	1.24077e-06
2	1	0	0	0	1	749.501	0.534745	0.534291	0.00262204	6	0.0232374	11	0	16.935	1.40093e-06
2	1	0	1	0	1	762.486	0.599668	0.599239	0.00452402	6	0.0232793	11	0	29.9196	2.71097e-06
2	1	0	0	0	1	775.471	0.664591	0.664127	0.120324	6	0.0237313	11	0	42.9042	7.99106e-05
2	1	0	1	0	1	788.196	0.671782	0.671333	0.160739	6	0.0271806	11	0	55.6295	0.000107909
2	1	0	1	0	1	801.18	0.606859	0.606391	0.00384483	6	0.0278079	11	0	68.6141	2.33147e-06
2	1	0	1	0	1	814.165	0.541936	0.541507	0.00038019	6	0.0278216	11	0	81.5987	2.05875e-07
2	1	0	1	0	1	827.15	0.477013	0.476595	0.000171176	6	0.0278229	11	0	0.0999	8.15817e-08
2	1	0	1	0	0	839.904	0.486802	0.486371	0.00269364	7	0.0278429	11	0	7.3854	1.31011e-06
2	1	0	0	0	0	852.888	0.551725	0.551265	0.00274102	7	0.0278794	11	0	20.37	1.51103e-06
2	1	0	1	0	0	865.873	0.616648	0.616179	0.00900658	7	0.0279341	11	0	33.3546	5.54967e-06
2	1	0	0	0	0	878.858	0.681571	0.681158	0.240892	7	0.028957	11	0	46.3392	0.000164086
2	1	0	1	0	0	891.583	0.654802	0.654348	0.0733998	7	0.0321823	11	0	59.0645	4.8029e-05
2	1	0	1	0	0	904.567	0.589879	0.589383	0.0015251	7	0.0324279	11	0	72.0491	8.9887e-07
2	0	0	1	0	0	917.552	0.524956	0.52453	0.000316366	7	0.0324344	11	0	85.0337	1.65944e-07
2	1	0	1	0	0	930.537	0.460033	0.459578	3.82596e-05	7	0.0324348	11	0	0.6992	1.75833e-08
2	0	0	1	0	1	943.291	0.503781	0.503328	0.0027068	8	0.0324644	11	0	10.7523	1.36241e-06
2	1	0	1	0	1	956.275	0.568704	0.568271	0.00288939	8	0.0325014	11	0	23.7369	1.64196e-06
2	1	0	1	0	1	969.26	0.633628	0.633174	0.0226626	8	0.0325949	11	0	36.7216	1.43494e-05
2	1	0	0	0	1	982.245	0.698551	0.698136	0.421846	8	0.0346738	11	0	49.7062	0.000294506
2	1	0	0	0	1	994.97	0.637823	0.637384	0.02774	8	0.0369626	11	0	62.4314	1.7681e-05
2	1	0	1	0	1	1007.95	0.5729	0.572467	0.000776491	8	0.0370468	11	0	75.416	4.44515e-07
2	0	0	0	0	1	1020.94	0.507977	0.507494	0.000216469	8	0.0370501	11	0	0.0998	1.09857e-07
2	1	0	1	0	0	1033.69	0.455838	0.455391	0.00248124	9	0.0370523	11	0	1.1537	1.12993e-06
2	1	0	1	0	0	1046.68	0.520761	0.520319	0.00255759	9	0.0370878	11	0	14.1383	1.33076e-06
2	0	0	1	0	0	1059.66	0.585684	0.585234	0.00332296	9	0.0371254	11	0	27.1229	1.94471e-06
2	1	0	1	0	0	1072.65	0.650607	0.65018	0.0585178	9	0.0373364	11	0	40.1075	3.80471e-05
2	1	0	1	0	0	1085.37	0.685766	0.685327	0.271356	9	0.0403984	11	0	52.8328	0.000185967
2	1	0	0	0	0	1098.36	0.620843	0.62041	0.00911004	9	0.0415953	11	0	65.8174	5.65196e-06
2	0	0	1	0	0	1111.34	0.55592	0.555495	0.000571193	9	0.0416234	11	0	78.802	3.17295e-07
2	0	0	0	0	0	1124.33	0.490997	0.490502	0.000178993	9	0.0416257	11	0	0.4994	8.77966e-08
2	1	0	1	0	1	1137.08	0.472818	0.472329	0.00267469	10	0.0416375	11	0	4.4947	1.26334e-06
2	0	0	1	0	1	1150.06	0.537742	0.537298	0.00272115	10	0.0416736	11	0	17.4793	1.46207e-06
2	1	0	1	0	1	1163.05	0.602664	0.602232	0.0047963	10	0.0417163	11	0	30.4639	2.88848e-06
2	1	0	1	0	1	1176.03	0.667587	0.667165	0.134735	10	0.0422265	11	0	43.4485	8.98903e-05
2	1	0	1	0	1	1188.76	0.668786	0.668295	0.141767	10	0.0456493	11	0	56.1738	9.4742e-05
2	1	0	0	0	1	1201.74	0.603863	0.603442	0.00291409	10	0.0461734	11	0	69.1584	1.75849e-06
2	0	0	1	0	1	1214.73	0.53894	0.538506	0.000395844	10	0.0461837	11	0	82.143	2.13164e-07
2	1	0	0	0	1	1227.71	0.474017	0.473562	8.2599e-05	10	0.0461843	11	0	0.000000000000000E+000	3.91157e-08
2	1	0	1	0	0	1240.47	0.489799	0.489358	0.00268599	11	0.0462054	11	0	7.9457	1.31441e-06
2	1	0	1	0	0	1253.45	0.554722	0.554261	0.00267028	11	0.0462414	11	0	20.9303	1.48003e-06
2	1	0	1	0	0	1266.44	0.619645	0.619194	0.00986534	11	0.0462974	11	0	33.9149	6.10856e-06
2	1	0	1	0	0	1279.42	0.684568	0.684114	0.267273	11	0.0474455	11	0	46.8995	0.000182845
2	1	0	1	0	0	1292.15	0.651807	0.651332	0.0614806	11	0.0505477	11	0	59.6247	4.00442e-05
2	1	0	1	0	0	1305.13	0.586884	0.586418	0.00113085	11	0.0507442	11	0	72.6093	6.63151e-07
2	1	0	1	0	0	1318.12	0.52196	0.521517	0.000239626	11	0.0507492	11	0	85.594	1.24969e-07
2	0	0	0	0	0	1331.1	0.457037	0.456617	2.98161e-06	11	0.0507495	11	0	0.000000000000000E+000	1.36145e-09
2	1	0	1	0	1	1343.85	0.506778	0.506338	0.00257035	12	0.0507803	11	0	11.3516	1.30147e-06
2	1	0	1	0	1	1356.84	0.571702	0.571234	0.00288024	12	0.0508165	11	0	24.3363	1.64529e-06
2	1	0	1	0	1	1369.82	0.636625	0.636213	0.0258945	12	0.050919	11	0	37.3209	1.64744e-05
2	1	0	1	0	1	1382.55	0.699749	0.699305	0.432399	12	0.0530972	11	0	50.0461	0.000302378
2	1	0	1	0	1	1395.53	0.634826	0.634417	0.0222947	12	0.0552131	11	0	63.0307	1.41441e-05
2	1	0	1	0	1	1408.52	0.569903	0.569458	0.000594375	12	0.0552784	11	0	76.0153	3.38471e-07
2	1	0	1	0	1	1421.5	0.504981	0.50457	0.000271169	12	0.0552813	11	0	0.2996	1.36824e-07
2	1	0	0	0	0	1434.26	0.458835	0.45839	0.00253462	13	0.0552851	11	0	1.763	1.16185e-06
2	1	0	1	0	0	1447.24	0.523758	0.52331	0.00252211	13	0.0553198	11	0	14.7476	1.31985e-06
2	1	0	0	0	0	1460.23	0.588681	0.588222	0.00329996	13	0.0553571	11	0	27.7322	1.94111e-06
2	1	0	1	0	0	1473.21	0.653604	0.653179	0.0669258	13	0.0555952	11	0	40.7168	4.37145e-05
2	1	0	1	0	0	1485.94	0.682769	0.682376	0.245379	13	0.058755	11	0	53.4421	0.000167441
2	1	0	1	0	0	1498.92	0.617846	0.617407	0.00695059	13	0.0597785	11	0	66.4267	4.29135e-06
2	1	0	1	0	0	1511.9	0.552923	0.552457	0.000458453	13	0.0598003	11	0	79.4113	2.53276e-07
2	0	0	1	0	0	1524.89	0.488	0.487495	7.31662e-05	13	0.0598018	11	0	0.0999	3.56681e-08
2	1	0	0	0	1	1537.64	0.475815	0.4754	0.0025138	14	0.0598145	11	0	5.159	1.19506e-06
2	0	0	1	0	1	1550.63	0.540738	0.540305	0.00261527	14	0.0598499	11	0	18.1436	1.41304e-06
2	1	0	0	0	1	1563.61	0.605661	0.605198	0.00515103	14	0.0598927	11	0	31.1282	3.11739e-06
2	1	0	1	0	1	1576.6	0.670584	0.670182	0.151572	14	0.0604711	11	0	44.1128	0.000101581
2	1	0	1	0	1	1589.32	0.665789	0.665388	0.121884	14	0.0638668	11	0	56.8381	8.11004e-05
2	1	0	1	0	1	1602.31	0.600866	0.600458	0.00230138	14	0.0642971	11	0	69.8227	1.38188e-06
2	0	0	1	0	1	1615.29	0.535943	0.535499	0.000380839	14	0.0643059	11	0	82.8073	2.03939e-07
2	1	0	1	0	1	1628.28	0.47102	0.470573	1.16393e-05	14	0.0643066	11	0	0.3996	5.47713e-09
2	1	0	1	0	0	1641.03	0.492794	0.492353	0.00255934	15	0.0643292	11	0	8.5449	1.2601e-06
2	1	0	1	0	0	1654.01	0.557717	0.557314	0.00264248	15	0.0643651	11	0	21.5295	1.47269e-06
2	1	0	0	0	0	1667	0.622641	0.622217	0.011281	15	0.0644249	11	0	34.5142	7.01926e-06
2	1	0	1	0	0	1679.98	0.687564	0.687164	0.293415	15	0.0657141	11	0	47.4988	0.000201624
2	1	0	1	0	0	1692.71	0.64881	0.648359	0.0497748	15	0.0686278	11	0	60.224	3.22719e-05
2	1	0	0	0	0	1705.69	0.583887	0.583435	0.000957757	15	0.0687838	11	0	73.2086	5.58789e-07
2	1	0	1	0	0	1718.68	0.518964	0.518544	0.000210102	15	0.0687881	11	0	86.1932	1.08947e-07
2	1	0	1	0	0	1731.66	0.45404	0.45362	-2.53089e-05	15	0.0687877	11	0	0.000000000000000E+000	-1.14806e-08
2	1	0	1	0	0	1732.47	0.450021	0.44942	-0.000961977	15	0.0687876	11	0	0.000000000000000E+000	-4.32332e-07