File: ACS_Catal_2026/Figures_Na_K/main_figures/data/EC/20251112_2-148_alpha_reproducibility/20251112_2-148_003_alpha_Na_first_1_K1_01_CVA_C01.mpt
EC-Lab ASCII FILE
Nb header lines : 66

Cyclic Voltammetry Advanced

Run on channel : 1 (SN 69187)
User :
CE vs. WE compliance from -10 V to 10 V
Electrode connection : standard
Potential control : Ewe
Ewe ctrl range : min = -1.00 V, max = 1.00 V
Safety Limits :
	Do not start on E overload
Acquisition started on : 11/12/2025 16:18:27.289
Loaded Setting File :  C:\Users\User\Documents\EC-Lab\Data\Yatsuzuka\20251030_2-147_gamma_reproducibility\20251030_2-147_001_gamma1_K_1.mps
Saved on :
	File : 20251112_2-148_003_alpha_Na_first_1_K1_01_CVA_C01.mpr
	Directory : C:\Users\User\Documents\EC-Lab\Data\Yatsuzuka\20251112_2-148_alpha_reproducibility\
	Host : 192.109.209.127
Device : SP-150e (SN .003883)
Address : 192.109.209.128
EC-Lab for windows v11.52 (software)
Internet server v11.52 (firmware)
Command interpretor v11.50 (firmware)
Electrode material :
Initial state :
Electrolyte :
Comments :
Electrode surface area : 0.001 cm2
Characteristic mass : 0.001 g
Equivalent Weight : 0.000 g/eq.
Density : 0.000 g/cm3
Volume (V) : 0.001 cm3
Cycle Definition : Charge/Discharge alternance
Ei (V)              0.350
vs.                 Ref
ti (h:m:s)          0:00:10.0000
dti (s)             0.0000
dE/dt               10.000
dE/dt unit          mV/s
E1 (V)              0.450
vs.                 Ref
t1 (h:m:s)          0:00:0.0000
dt1 (s)             0.1000
Step percent        50
N                   10
E range min (V)     -1.000
E range max (V)     1.000
I Range             Auto
I Range min         Unset
I Range max         Unset
I Range init        Unset
Bandwidth           5
E2 (V)              0.350
vs.                 Ref
t2 (h:m:s)          0:00:0.0000
dt2 (s)             0.1000
nc cycles           9
nr                  1
Reverse Scan        0
Ef (V)              0.000
vs.                 Eoc
tf (h:m:s)          0:00:0.0000
dtf (s)             0.1000

mode	ox/red	error	control changes	Ns changes	counter inc.	time/s	control/V	Ewe/V	<I>/mA	cycle number	(Q-Qo)/C	I Range	Ns	step time/s	P/W
2	1	0	0	0	0	0.000000000000000E+000	0.34995	0.349685	0.00810235	1	0.0000000E+000	13	0	0.000000000000000E+000	2.83327e-06
2	1	0	1	0	0	1.725	0.3672	0.367	0.0384334	1	6.11989e-05	13	0	1.6977	1.4105e-05
2	1	0	1	0	0	3.4726	0.384677	0.384424	0.0326994	1	0.00012134	13	0	3.4453	1.25704e-05
2	1	0	1	0	0	5.2201	0.402152	0.401931	0.0267206	1	0.000177253	13	0	5.1928	1.07398e-05
2	1	0	1	0	0	6.9677	0.419628	0.419366	0.0366513	1	0.000229466	13	0	6.9404	1.53703e-05
2	1	0	1	0	0	8.7153	0.437104	0.43686	0.0208466	1	0.000278411	13	0	8.688	9.10705e-06
2	0	0	1	0	0	10.4397	0.445642	0.445374	-0.0132725	1	0.000304704	13	0	0.3446	-5.91124e-06
2	0	0	1	0	0	12.1873	0.428166	0.427927	-0.0265936	1	0.000263266	13	0	2.0922	-1.13801e-05
2	0	0	1	0	0	13.9348	0.41069	0.410454	-0.0368892	1	0.000216526	13	0	3.8397	-1.51413e-05
2	0	0	1	0	0	15.6824	0.393214	0.392952	-0.0262792	1	0.000164793	13	0	5.5873	-1.03265e-05
2	0	0	1	0	0	17.4299	0.375739	0.375495	-0.0271174	1	0.000107597	13	0	7.3348	-1.01824e-05
2	0	0	1	0	0	19.1775	0.358263	0.35794	-0.0425519	1	4.39827e-05	13	0	9.0824	-1.5231e-05
2	1	0	1	0	1	20.8927	0.358912	0.358699	0.0420205	2	3.95183e-05	13	0	0.8588	1.50727e-05
2	1	0	1	0	1	22.6403	0.376388	0.376139	0.0420642	2	9.96707e-05	13	0	2.6064	1.5822e-05
2	1	0	1	0	1	24.3879	0.393864	0.393628	0.0363474	2	0.000156483	13	0	4.354	1.43074e-05
2	1	0	1	0	1	26.1355	0.411339	0.411141	0.0304513	2	0.000209626	13	0	6.1016	1.25198e-05
2	1	0	1	0	1	27.8831	0.428815	0.428559	0.0242446	2	0.000259362	13	0	7.8492	1.03902e-05
2	1	0	1	0	1	29.6307	0.446291	0.446123	0.021805	2	0.000306402	13	0	9.5968	9.7277e-06
2	0	0	1	0	1	31.3849	0.436155	0.435855	-0.0286905	2	0.000286104	13	0	1.3431	-1.25049e-05
2	0	0	1	0	1	33.1325	0.418679	0.418427	-0.0341358	2	0.000241585	13	0	3.0907	-1.42833e-05
2	0	0	1	0	1	34.8801	0.401203	0.400963	-0.0381049	2	0.000192225	13	0	4.8383	-1.52786e-05
2	0	0	1	0	1	36.6277	0.383728	0.383434	-0.0412976	2	0.000137726	13	0	6.5859	-1.58349e-05
2	0	0	1	0	1	38.3753	0.366252	0.366007	-0.0449461	2	7.72496e-05	13	0	8.3335	-1.64506e-05
2	0	0	1	0	0	40.0305	0.350324	0.350091	-0.00173545	3	1.47788e-05	13	0	9.9887	-6.07565e-07
2	1	0	1	0	0	41.8381	0.368399	0.368189	0.0416472	3	7.52385e-05	13	0	1.7426	1.5334e-05
2	1	0	1	0	0	43.5856	0.385874	0.385658	0.0384697	3	0.000133582	13	0	3.4901	1.48362e-05
2	1	0	1	0	0	45.3332	0.40335	0.40313	0.0374027	3	0.000188173	13	0	5.2377	1.50781e-05
2	1	0	1	0	0	47.0808	0.420827	0.420616	0.03621	3	0.000239282	13	0	6.9853	1.52305e-05
2	1	0	1	0	0	48.8283	0.438302	0.438121	0.0351292	3	0.000287379	13	0	8.7328	1.53908e-05
2	0	0	1	0	0	50.5827	0.444144	0.443868	-0.015904	3	0.000306683	13	0	0.5593	-7.05926e-06
2	0	0	1	0	0	52.3302	0.426669	0.426426	-0.0193759	3	0.000264653	13	0	2.3068	-8.26238e-06
2	0	0	1	0	0	54.0778	0.409192	0.408957	-0.0212307	3	0.000217614	13	0	4.0544	-8.68244e-06
2	0	0	1	0	0	55.8254	0.391716	0.391497	-0.0236088	3	0.000165557	13	0	5.802	-9.24278e-06
2	0	0	1	0	0	57.5729	0.374241	0.373994	-0.0265978	3	0.000108042	13	0	7.5495	-9.9474e-06
2	0	0	1	0	0	59.3205	0.356765	0.356517	-0.0304961	3	4.4107e-05	13	0	9.2971	-1.08724e-05
2	1	0	1	0	1	61.0357	0.36041	0.360168	0.0324455	4	5.05005e-05	13	0	0.9436	1.16858e-05
2	1	0	1	0	1	62.7833	0.377886	0.377653	0.0318463	4	0.000110176	13	0	2.6912	1.20268e-05
2	1	0	1	0	1	64.5309	0.395362	0.395132	0.0300359	4	0.000166387	13	0	4.4388	1.18681e-05
2	1	0	1	0	1	66.2785	0.412837	0.412602	0.028852	4	0.00021894	13	0	6.1864	1.19044e-05
2	1	0	1	0	1	68.0261	0.430313	0.430107	0.0290828	4	0.000268243	13	0	7.934	1.25087e-05
2	1	0	1	0	1	69.7737	0.447789	0.447584	0.0288394	4	0.000314933	13	0	9.6816	1.29081e-05
2	0	0	1	0	1	71.5279	0.434657	0.434386	-0.0169946	4	0.000287237	13	0	1.5079	-7.3822e-06
2	0	0	1	0	1	73.2755	0.417181	0.416944	-0.0189917	4	0.000242371	13	0	3.2555	-7.91846e-06
2	0	0	1	0	1	75.0231	0.399705	0.399425	-0.0213374	4	0.000192681	13	0	5.0031	-8.52267e-06
2	0	0	1	0	1	76.7707	0.38223	0.381949	-0.0253392	4	0.000137864	13	0	6.7507	-9.67828e-06
2	0	0	1	0	1	78.5183	0.364754	0.364495	-0.0301161	4	7.70729e-05	13	0	8.4983	-1.09772e-05
2	1	0	1	0	0	80.2185	0.352271	0.352091	0.0345194	5	2.53839e-05	12	0	0.1948	1.2154e-05
2	1	0	1	0	0	81.9811	0.369897	0.369688	0.0393938	5	8.58825e-05	13	0	1.9574	1.45634e-05
2	1	0	1	0	0	83.7286	0.387372	0.387124	0.0399582	5	0.000143704	13	0	3.7049	1.54688e-05
2	1	0	1	0	0	85.4762	0.404849	0.4046	0.0386509	5	0.000197781	13	0	5.4525	1.56382e-05
2	1	0	1	0	0	87.2238	0.422325	0.422114	0.0339281	5	0.000248417	13	0	7.2001	1.43215e-05
2	1	0	1	0	0	88.9713	0.4398	0.439614	0.0302449	5	0.000296095	13	0	8.9476	1.32961e-05
2	0	0	1	0	0	90.7257	0.442646	0.442411	-0.0225004	5	0.00030826	13	0	0.7091	-9.9544e-06
2	0	0	1	0	0	92.4732	0.425171	0.424893	-0.0230365	5	0.000265775	13	0	2.4566	-9.78805e-06
2	0	0	1	0	0	94.2208	0.407694	0.407454	-0.0231224	5	0.00021845	13	0	4.2042	-9.42132e-06
2	0	0	1	0	0	95.9684	0.390218	0.389967	-0.0235283	5	0.000166112	13	0	5.9518	-9.17525e-06
2	0	0	1	0	0	97.7159	0.372743	0.372523	-0.0258525	5	0.000108299	13	0	7.6993	-9.63064e-06
2	0	0	1	0	0	99.4635	0.355267	0.355006	-0.0301426	5	4.40233e-05	13	0	9.4469	-1.07008e-05
2	1	0	1	0	1	101.179	0.361908	0.361691	0.0254479	6	6.16872e-05	13	0	1.0934	9.20427e-06
2	1	0	1	0	1	102.926	0.379384	0.379161	0.0241502	6	0.000120976	13	0	2.841	9.15682e-06
2	1	0	1	0	1	104.674	0.396859	0.396654	0.0230814	6	0.000176673	13	0	4.5886	9.15534e-06
2	1	0	1	0	1	106.421	0.414335	0.414156	0.0236362	6	0.000228758	13	0	6.3362	9.78906e-06
2	1	0	1	0	1	108.169	0.431811	0.431669	0.0245397	6	0.000277643	13	0	8.0838	1.0593e-05
2	1	0	1	0	1	109.917	0.449287	0.449105	0.0255401	6	0.00032399	13	0	9.8314	1.14702e-05
2	0	0	1	0	1	111.671	0.433159	0.432923	-0.027378	6	0.000288439	13	0	1.6577	-1.18526e-05
2	0	0	1	0	1	113.418	0.415683	0.415443	-0.0285239	6	0.000243269	13	0	3.4053	-1.185e-05
2	0	0	1	0	1	115.166	0.398208	0.397964	-0.0269351	6	0.000193343	13	0	5.1529	-1.07192e-05
2	0	0	1	0	1	116.914	0.380732	0.380523	-0.0261788	6	0.000138224	13	0	6.9005	-9.96162e-06
2	0	0	1	0	1	118.661	0.363256	0.362994	-0.0279057	6	7.71377e-05	13	0	8.6481	-1.01296e-05
2	1	0	1	0	0	120.376	0.353919	0.353703	0.0258579	7	3.66893e-05	13	0	0.3596	9.14603e-06
2	1	0	1	0	0	122.124	0.371394	0.371194	0.0336709	7	9.67355e-05	13	0	2.1071	1.24984e-05
2	1	0	1	0	0	123.872	0.38887	0.388689	0.0388385	7	0.000154115	13	0	3.8547	1.50961e-05
2	1	0	1	0	0	125.619	0.406347	0.406155	0.0392692	7	0.000207768	13	0	5.6023	1.59494e-05
2	1	0	1	0	0	127.367	0.423822	0.423569	0.0324659	7	0.000258	13	0	7.3498	1.37516e-05
2	1	0	1	0	0	129.114	0.441298	0.441117	0.0246917	7	0.000305364	13	0	9.0974	1.08919e-05
2	0	0	1	0	0	130.869	0.441148	0.440873	-0.0260689	7	0.000309711	13	0	0.8589	-1.14931e-05
2	0	0	1	0	0	132.616	0.423673	0.4234	-0.0342764	7	0.000266782	13	0	2.6064	-1.45126e-05
2	0	0	1	0	0	134.364	0.406196	0.405932	-0.0361714	7	0.000219103	13	0	4.354	-1.46831e-05
2	0	0	1	0	0	136.111	0.388721	0.388463	-0.0340515	7	0.000166471	13	0	6.1015	-1.32278e-05
2	0	0	1	0	0	137.859	0.371245	0.370983	-0.0321291	7	0.000108283	13	0	7.8491	-1.19193e-05
2	0	0	1	0	0	139.606	0.353769	0.353555	-0.0319891	7	4.36553e-05	13	0	9.5967	-1.13099e-05
2	1	0	1	0	1	141.322	0.363406	0.363145	0.0272887	8	7.19602e-05	13	0	1.3082	9.90978e-06
2	1	0	1	0	1	143.069	0.380882	0.38062	0.0240372	8	0.000130872	13	0	3.0558	9.14905e-06
2	1	0	1	0	1	144.817	0.398357	0.398149	0.0240718	8	0.000186108	13	0	4.8034	9.58418e-06
2	1	0	1	0	1	146.564	0.415833	0.415668	0.0246922	8	0.00023777	13	0	6.551	1.02637e-05
2	1	0	1	0	1	148.312	0.433309	0.433073	0.0309001	8	0.000286298	13	0	8.2986	1.3382e-05
2	1	0	1	0	1	150.006	0.449737	0.44953	-0.0118066	8	0.000330261	13	0	0.000000000000000E+000	-5.30741e-06
2	0	0	1	0	1	151.814	0.431661	0.431386	-0.0199745	8	0.000289492	13	0	1.8075	-8.61674e-06
2	0	0	1	0	1	153.561	0.414185	0.413964	-0.0356844	8	0.000244035	13	0	3.5551	-1.4772e-05
2	0	0	1	0	1	155.309	0.39671	0.396437	-0.0298499	8	0.000193736	13	0	5.3027	-1.18336e-05
2	0	0	1	0	1	157.057	0.379234	0.378952	-0.0244962	8	0.000138319	13	0	7.0503	-9.28288e-06
2	0	0	1	0	1	158.804	0.361759	0.361519	-0.0290939	8	7.68571e-05	13	0	8.7978	-1.0518e-05
2	1	0	1	0	0	160.519	0.355417	0.355161	0.0255966	9	4.72214e-05	13	0	0.4444	9.09093e-06
2	1	0	1	0	0	162.267	0.372892	0.37269	0.0282328	9	0.000107079	13	0	2.1919	1.05221e-05
2	1	0	1	0	0	164.015	0.390368	0.390173	0.0304925	9	0.000163979	13	0	3.9395	1.18974e-05
2	1	0	1	0	0	165.762	0.407845	0.407685	0.0320649	9	0.000217187	13	0	5.6871	1.30724e-05
2	1	0	1	0	0	167.51	0.42532	0.425103	0.0335576	9	0.000266966	13	0	7.4346	1.42655e-05
2	1	0	1	0	0	169.257	0.442796	0.442615	0.0328591	9	0.000314018	13	0	9.1822	1.45439e-05
2	0	0	1	0	0	171.012	0.439651	0.439454	-0.0179506	9	0.000311297	13	0	0.9437	-7.88846e-06
2	0	0	1	0	0	172.759	0.422174	0.421985	-0.0181045	9	0.00026803	13	0	2.6913	-7.6398e-06
2	0	0	1	0	0	174.507	0.404698	0.404399	-0.0201795	9	0.000219999	13	0	4.4389	-8.16057e-06
2	0	0	1	0	0	176.254	0.387223	0.386923	-0.023948	9	0.000167128	13	0	6.1864	-9.26604e-06
2	0	0	1	0	0	178.002	0.369747	0.369476	-0.0299066	9	0.000108594	13	0	7.934	-1.10498e-05
2	0	0	1	0	0	179.749	0.352271	0.351955	-0.0354998	9	4.35485e-05	13	0	9.6816	-1.24943e-05
2	1	0	1	0	1	181.465	0.364904	0.36469	0.0266716	10	8.27944e-05	13	0	1.458	9.72686e-06
2	1	0	1	0	1	183.212	0.38238	0.382138	0.025086	10	0.00014132	13	0	3.2056	9.58631e-06
2	1	0	1	0	1	184.96	0.399855	0.39965	0.0228833	10	0.000196125	13	0	4.9532	9.1453e-06
2	1	0	1	0	1	186.707	0.417331	0.417114	0.0207544	10	0.000247433	13	0	6.7008	8.65695e-06
2	1	0	1	0	1	188.455	0.434807	0.434543	0.0186124	10	0.000295614	13	0	8.4484	8.08788e-06
2	0	0	1	0	1	190.194	0.447788	0.44759	-0.0221347	10	0.000331706	12	0	0.1299	-9.90727e-06
2	0	0	1	0	1	191.957	0.430163	0.429883	-0.0322993	10	0.000291111	13	0	1.8924	-1.38849e-05
2	0	0	1	0	1	193.704	0.412688	0.412453	-0.0330286	10	0.000245316	13	0	3.64	-1.36227e-05
2	0	0	1	0	1	195.452	0.395212	0.394933	-0.0329272	10	0.00019473	13	0	5.3876	-1.3004e-05
2	0	0	1	0	1	197.2	0.377736	0.377454	-0.0319529	10	0.000138937	13	0	7.1352	-1.20607e-05
2	0	0	1	0	1	198.947	0.360261	0.359969	-0.033641	10	7.70432e-05	13	0	8.8827	-1.21097e-05
2	0	0	1	0	1	199.971	0.35	0.349819	-0.0350871	10	3.7779e-05	13	0	9.9063	-1.22741e-05