File: ACS_Catal_2026/Figures_Na_K/main_figures/data/EC/20251112_2-148_alpha_reproducibility/20251112_2-148_006_gamma_reproducibility_2_K1_03_CVA_C02.mpt
EC-Lab ASCII FILE
Nb header lines : 66

Cyclic Voltammetry Advanced

Run on channel : 2 (SN 69290)
User :
CE vs. WE compliance from -10 V to 10 V
Electrode connection : standard
Potential control : Ewe
Ewe ctrl range : min = -1.00 V, max = 1.00 V
Safety Limits :
	Do not start on E overload
Acquisition started on : 11/12/2025 19:12:40.101
Loaded Setting File :  C:\Users\User\Documents\EC-Lab\Data\Yatsuzuka\20251112_2-148_alpha_reproducibility\20251112_2-148_002_alpha_reproducibility_2_K1.mps
Saved on :
	File : 20251112_2-148_006_gamma_reproducibility_2_K1_03_CVA_C02.mpr
	Directory : C:\Users\User\Documents\EC-Lab\Data\Yatsuzuka\20251112_2-148_alpha_reproducibility\
	Host : 192.109.209.127
Device : SP-150e (SN .003883)
Address : 192.109.209.128
EC-Lab for windows v11.52 (software)
Internet server v11.52 (firmware)
Command interpretor v11.50 (firmware)
Electrode material :
Initial state :
Electrolyte :
Comments :
Electrode surface area : 0.001 cm2
Characteristic mass : 0.001 g
Equivalent Weight : 0.000 g/eq.
Density : 0.000 g/cm3
Volume (V) : 0.001 cm3
Cycle Definition : Charge/Discharge alternance
Ei (V)              0.450
vs.                 Ref
ti (h:m:s)          0:00:10.0000
dti (s)             0.0000
dE/dt               5.000
dE/dt unit          mV/s
E1 (V)              0.700
vs.                 Ref
t1 (h:m:s)          0:00:0.0000
dt1 (s)             0.1000
Step percent        50
N                   10
E range min (V)     -1.000
E range max (V)     1.000
I Range             10 mA
I Range min         Unset
I Range max         Unset
I Range init        Unset
Bandwidth           5
E2 (V)              0.450
vs.                 Ref
t2 (h:m:s)          0:00:0.0000
dt2 (s)             0.1000
nc cycles           14
nr                  1
Reverse Scan        0
Ef (V)              0.000
vs.                 Eoc
tf (h:m:s)          0:00:0.0000
dtf (s)             0.1000

mode	ox/red	error	control changes	Ns changes	counter inc.	time/s	control/V	Ewe/V	<I>/mA	cycle number	(Q-Qo)/C	I Range	Ns	step time/s	P/W
2	1	0	1	0	0	232.741	0.450021	0.449687	0.00563072	1	0.0000000E+000	11	0	0.000000000000000E+000	2.53206e-06
2	1	0	1	0	0	245.881	0.515717	0.515245	0.00493937	1	5.96035e-05	11	0	13.0845	2.54498e-06
2	1	0	1	0	0	259.065	0.581639	0.581185	0.0113358	1	0.000160951	11	0	26.2689	6.58821e-06
2	1	0	1	0	0	272.25	0.647562	0.647113	0.0586608	1	0.000516941	11	0	39.4533	3.79601e-05
2	1	0	1	0	0	285.185	0.687763	0.687301	0.170909	1	0.00255829	11	0	52.3883	0.000117466
2	1	0	0	0	0	298.369	0.621842	0.62143	0.0138798	1	0.00338327	11	0	65.5726	8.62532e-06
2	1	0	0	0	0	311.553	0.55592	0.555455	0.00196405	1	0.00345221	11	0	78.757	1.09094e-06
2	1	0	0	0	0	324.738	0.489998	0.489545	0.000622922	1	0.00345889	11	0	0.000000000000000E+000	3.04949e-07
2	1	0	0	0	1	337.692	0.474816	0.474316	0.00291233	2	0.00347314	11	0	4.8942	1.38136e-06
2	1	0	0	0	1	350.876	0.540738	0.540267	0.00395022	2	0.00351858	11	0	18.0786	2.13417e-06
2	1	0	0	0	1	364.06	0.60666	0.606219	0.0104022	2	0.00359627	11	0	31.263	6.30599e-06
2	1	0	1	0	1	377.245	0.672581	0.672152	0.0895767	2	0.0040675	11	0	44.4473	6.02091e-05
2	1	0	1	0	1	390.17	0.662794	0.6624	0.0537982	2	0.00576201	11	0	57.3723	3.56359e-05
2	1	0	1	0	1	403.354	0.596871	0.596426	0.00414339	2	0.00601961	11	0	70.5567	2.47123e-06
2	0	0	1	0	1	416.538	0.530949	0.530496	0.000538999	2	0.00604143	11	0	83.7411	2.85937e-07
2	0	0	1	0	1	429.723	0.465027	0.464581	-0.000242818	2	0.00604211	11	0	0.000000000000000E+000	-1.12809e-07
2	0	0	1	0	0	442.677	0.499787	0.499347	0.00289552	3	0.00607141	11	0	9.9433	1.44587e-06
2	1	0	1	0	0	455.861	0.565709	0.565237	0.00439369	3	0.00611719	11	0	23.1277	2.48348e-06
2	1	0	0	0	0	469.045	0.63163	0.631216	0.0194277	3	0.00623347	11	0	36.312	1.2263e-05
2	1	0	0	0	0	482.23	0.697552	0.697086	0.191519	3	0.00722832	11	0	49.4964	0.000133505
2	1	0	1	0	0	495.155	0.637823	0.637413	0.0192426	3	0.0083067	11	0	62.4214	1.22655e-05
2	1	0	1	0	0	508.339	0.571901	0.571475	0.00193219	3	0.00839567	11	0	75.6058	1.1042e-06
2	1	0	1	0	0	521.524	0.505979	0.505564	0.000587234	3	0.00840314	11	0	0.000000000000000E+000	2.96885e-07
2	1	0	1	0	1	534.477	0.458835	0.458372	0.00323801	4	0.00840628	11	0	1.763	1.48421e-06
2	1	0	1	0	1	547.662	0.524757	0.524377	0.00267252	4	0.00844656	11	0	14.9474	1.40141e-06
2	1	0	1	0	1	560.846	0.590678	0.590208	0.00598381	4	0.00849887	11	0	28.1317	3.53169e-06
2	1	0	1	0	1	574.03	0.6566	0.656159	0.0429284	4	0.008726	11	0	41.3161	2.81678e-05
2	1	0	1	0	1	586.955	0.678774	0.678341	0.0903628	4	0.0102124	11	0	54.2411	6.12968e-05
2	1	0	1	0	1	600.14	0.612852	0.612405	0.00679345	4	0.0106379	11	0	67.4255	4.16034e-06
2	0	0	1	0	1	613.324	0.54693	0.546522	0.000351066	4	0.0106695	11	0	80.6099	1.91865e-07
2	0	0	1	0	1	626.509	0.481009	0.480567	-0.00047607	4	0.0106713	11	0	0.000000000000000E+000	-2.28784e-07
2	1	0	1	0	0	639.462	0.483806	0.483369	0.00295832	5	0.0106889	11	0	6.7471	1.42996e-06
2	1	0	1	0	0	652.647	0.549728	0.549265	0.0029722	5	0.0107292	11	0	19.9315	1.63252e-06
2	1	0	1	0	0	665.831	0.615649	0.61522	0.0102875	5	0.010801	11	0	33.1158	6.32905e-06
2	1	0	1	0	0	679.016	0.681571	0.681135	0.104918	5	0.0113246	11	0	46.3002	7.14636e-05
2	1	0	0	0	0	691.941	0.653804	0.653399	0.0342075	5	0.0127364	11	0	59.2252	2.23511e-05
2	1	0	0	0	0	705.125	0.587882	0.587426	0.00273197	5	0.01289	11	0	72.4096	1.60483e-06
2	1	0	0	0	0	718.309	0.52196	0.521455	0.000574284	5	0.0129021	11	0	0.000000000000000E+000	2.99463e-07
2	0	0	1	0	0	731.494	0.456039	0.455583	-0.000422938	5	0.0129016	11	0	0.1997	-1.92683e-07
2	0	0	0	0	1	744.448	0.508776	0.508299	0.00254956	6	0.0129355	11	0	11.7412	1.29594e-06
2	1	0	1	0	1	757.632	0.574697	0.574253	0.00413985	6	0.0129791	11	0	24.9255	2.37732e-06
2	1	0	1	0	1	770.816	0.640619	0.640232	0.0222887	6	0.0131062	11	0	38.1099	1.427e-05
2	1	0	1	0	1	783.741	0.694755	0.694312	0.164564	6	0.014287	11	0	51.0349	0.000114258
2	1	0	1	0	1	796.926	0.628833	0.628407	0.0120655	6	0.0150773	11	0	64.2193	7.58206e-06
2	1	0	1	0	1	810.11	0.562911	0.562436	0.0014654	6	0.015131	11	0	77.4037	8.24192e-07
2	1	0	0	0	1	823.294	0.49699	0.496552	9.56232e-05	6	0.0151353	11	0	0.000000000000000E+000	4.74819e-08
2	1	0	1	0	0	836.248	0.467825	0.467388	0.0023593	7	0.0151434	11	0	3.4959	1.10271e-06
2	1	0	0	0	0	849.433	0.533746	0.533299	0.00290994	7	0.0151817	11	0	16.6802	1.55187e-06
2	1	0	0	0	0	862.617	0.599668	0.5992	0.00625493	7	0.0152341	11	0	29.8646	3.74795e-06
2	1	0	0	0	0	875.801	0.66559	0.665135	0.0580626	7	0.0155196	11	0	43.049	3.86195e-05
2	1	0	1	0	0	888.726	0.669785	0.669354	0.0657745	7	0.0170745	11	0	55.974	4.40264e-05
2	1	0	1	0	0	901.911	0.603863	0.603418	0.00446155	7	0.0173702	11	0	69.1584	2.69218e-06
2	1	0	1	0	0	915.095	0.537942	0.537531	0.000915737	7	0.0173898	11	0	82.3427	4.92237e-07
2	1	0	1	0	0	928.279	0.472019	0.471574	0.000429759	7	0.0173907	11	0	0.000000000000000E+000	2.02663e-07
2	1	0	1	0	1	941.233	0.492794	0.492312	0.00231689	8	0.0174143	11	0	8.5449	1.14063e-06
2	1	0	1	0	1	954.418	0.558716	0.558315	0.00302023	8	0.0174543	11	0	21.7293	1.68624e-06
2	1	0	1	0	1	967.602	0.624638	0.624187	0.0124485	8	0.0175336	11	0	34.9137	7.77021e-06
2	1	0	1	0	1	980.786	0.690561	0.69014	0.152304	8	0.0182747	11	0	48.0981	0.000105111
2	1	0	1	0	1	993.711	0.644814	0.64438	0.0243384	8	0.0195946	11	0	61.0231	1.56832e-05
2	1	0	1	0	1	1006.9	0.578892	0.578436	0.0020084	8	0.0196961	11	0	74.2075	1.16173e-06
2	1	0	1	0	1	1020.08	0.512971	0.512506	7.26651e-05	8	0.0197034	11	0	0.0999	3.72413e-08
2	0	0	1	0	0	1033.03	0.451844	0.451375	0.00204337	9	0.0197026	11	0	0.3547	9.22328e-07
2	1	0	1	0	0	1046.22	0.517765	0.517314	0.00291004	9	0.0197398	11	0	13.539	1.50541e-06
2	1	0	1	0	0	1059.4	0.583687	0.583263	0.00413337	9	0.0197833	11	0	26.7234	2.41084e-06
2	1	0	1	0	0	1072.59	0.649609	0.649164	0.0321705	9	0.0199433	11	0	39.9078	2.08839e-05
2	1	0	0	0	0	1085.51	0.685766	0.68536	0.131213	9	0.0214382	11	0	52.8328	8.99282e-05
2	1	0	0	0	0	1098.7	0.619844	0.619391	0.00821733	9	0.0220467	11	0	66.0172	5.08973e-06
2	1	0	1	0	0	1111.88	0.553923	0.553475	0.00116425	9	0.0220816	11	0	79.2015	6.44381e-07
2	1	0	1	0	0	1125.07	0.488	0.487532	0.000506269	9	0.0220851	11	0	0.0999	2.46823e-07
2	1	0	1	0	1	1138.02	0.476813	0.476378	0.00300401	10	0.0220995	11	0	5.2937	1.43105e-06
2	1	0	1	0	1	1151.2	0.542735	0.542289	0.00334484	10	0.0221383	11	0	18.4781	1.81387e-06
2	1	0	1	0	1	1164.39	0.608658	0.608216	0.00678674	10	0.0221955	11	0	31.6625	4.1278e-06
2	1	0	1	0	1	1177.57	0.67458	0.674128	0.0904212	10	0.0226148	11	0	44.8469	6.09554e-05
2	1	0	1	0	1	1190.5	0.660795	0.660336	0.0519795	10	0.024335	11	0	57.7719	3.43239e-05
2	1	0	0	0	1	1203.68	0.594874	0.594392	0.00279786	10	0.0245518	11	0	70.9562	1.66303e-06
2	1	0	0	0	1	1216.87	0.528952	0.528527	0.000248383	10	0.0245657	11	0	0.000000000000000E+000	1.31277e-07
2	1	0	0	0	1	1230.05	0.46303	0.462553	-0.000124171	10	0.0245666	11	0	0.000000000000000E+000	-5.74356e-08
2	1	0	0	0	0	1243	0.501784	0.501335	0.00258767	11	0.0245956	11	0	10.3428	1.29729e-06
2	1	0	0	0	0	1256.19	0.567706	0.567224	0.00306759	11	0.0246359	11	0	23.5272	1.74001e-06
2	1	0	0	0	0	1269.37	0.633628	0.633199	0.0167385	11	0.0247314	11	0	36.7116	1.05988e-05
2	1	0	1	0	0	1282.56	0.699549	0.699104	0.235044	11	0.0258899	11	0	49.8959	0.00016432
2	1	0	1	0	0	1295.48	0.635826	0.635376	0.0167706	11	0.0270759	11	0	62.8209	1.06556e-05
2	0	0	1	0	0	1308.67	0.569903	0.56947	0.000885364	11	0.0271452	11	0	76.0053	5.04188e-07
2	1	0	1	0	0	1321.85	0.503981	0.503548	0.000654115	11	0.0271513	11	0	0.1998	3.29378e-07
2	1	0	1	0	1	1334.8	0.460832	0.460419	0.00282556	12	0.027157	11	0	2.0975	1.30094e-06
2	1	0	1	0	1	1347.99	0.526755	0.526285	0.00298156	12	0.0271954	11	0	15.2819	1.56915e-06
2	1	0	1	0	1	1361.17	0.592676	0.59219	0.00458308	12	0.0272424	11	0	28.4663	2.71405e-06
2	1	0	0	0	1	1374.36	0.658598	0.658224	0.0512474	12	0.0274725	11	0	41.6506	3.37322e-05
2	1	0	1	0	1	1387.28	0.676776	0.67637	0.110708	12	0.0293489	11	0	54.5757	7.48799e-05
2	1	0	1	0	1	1400.47	0.610855	0.610367	0.00544875	12	0.029831	11	0	67.76	3.32574e-06
2	1	0	1	0	1	1413.65	0.544933	0.544539	0.000961407	12	0.0298543	11	0	80.9444	5.23524e-07
2	1	0	1	0	1	1426.84	0.479011	0.478571	0.000515564	12	0.0298566	11	0	0.000000000000000E+000	2.46734e-07
2	1	0	1	0	0	1439.79	0.485803	0.485369	0.00274529	13	0.0298758	11	0	7.1466	1.33248e-06
2	0	0	1	0	0	1452.97	0.551725	0.551239	0.00304941	13	0.0299138	11	0	20.331	1.68096e-06
2	1	0	1	0	0	1466.16	0.617647	0.617196	0.00927568	13	0.0299774	11	0	33.5154	5.72491e-06
2	1	0	1	0	0	1479.34	0.683568	0.683086	0.148646	13	0.0306516	11	0	46.6997	0.000101538
2	1	0	1	0	0	1492.27	0.651807	0.651339	0.0406728	13	0.0325208	11	0	59.6247	2.64918e-05
2	1	0	1	0	0	1505.45	0.585884	0.585442	0.00228144	13	0.0326754	11	0	72.8091	1.33565e-06
2	0	0	1	0	0	1518.64	0.519962	0.519513	7.54237e-06	13	0.0326843	11	0	0.000000000000000E+000	3.91836e-09
2	0	0	1	0	0	1531.82	0.45404	0.453579	-0.000470629	13	0.0326838	11	0	0.1998	-2.13467e-07
2	1	0	1	0	1	1544.78	0.510773	0.510324	0.00234882	14	0.0327176	11	0	12.1407	1.19866e-06
2	1	0	1	0	1	1557.96	0.576696	0.576249	0.00327012	14	0.0327586	11	0	25.3251	1.8844e-06
2	1	0	1	0	1	1571.14	0.642617	0.642204	0.0261696	14	0.0328858	11	0	38.5094	1.68063e-05
2	1	0	0	0	1	1584.07	0.692758	0.692325	0.216088	14	0.0345632	11	0	51.4344	0.000149603
2	1	0	0	0	1	1597.25	0.626836	0.6264	0.0113852	14	0.0356088	11	0	64.6188	7.13167e-06
2	1	0	0	0	1	1610.44	0.560914	0.560498	0.00123654	14	0.0356544	11	0	77.8032	6.93076e-07
2	1	0	0	0	1	1623.62	0.494992	0.494514	0.000440509	14	0.0356588	11	0	0.000000000000000E+000	2.17838e-07
2	1	0	0	0	0	1636.58	0.469822	0.469403	0.0022567	15	0.0356694	11	0	3.9504	1.0593e-06
2	1	0	0	0	0	1649.76	0.535744	0.535309	0.00303057	15	0.035707	11	0	17.1348	1.62229e-06
2	1	0	1	0	0	1662.94	0.601665	0.601229	0.005775	15	0.0357566	11	0	30.3191	3.4721e-06
2	1	0	1	0	0	1676.13	0.667587	0.667119	0.0870399	15	0.0361232	11	0	43.5035	5.8066e-05
2	1	0	1	0	0	1689.05	0.667787	0.667355	0.0922036	15	0.038389	11	0	56.4285	6.15326e-05
2	1	0	1	0	0	1702.24	0.601865	0.601423	0.00384494	15	0.0387597	11	0	69.6129	2.31243e-06
2	0	0	1	0	0	1715.42	0.535943	0.535487	0.000141991	15	0.0387761	11	0	82.7973	7.60342e-08
2	1	0	0	0	0	1728.61	0.470022	0.469565	-0.000244942	15	0.038778	11	0	0.000000000000000E+000	-1.15016e-07
2	1	0	0	0	0	1732.61	0.450021	0.449439	0.000590464	15	0.0387775	11	0	0.2039	2.65377e-07