File: ACS_Catal_2026/Figures_Na_K/main_figures/data/EC/20251112_2-148_alpha_reproducibility/20251112_2-148_002_alpha_reproducibility_2_K2_01_CVA_C02.mpt
EC-Lab ASCII FILE
Nb header lines : 66

Cyclic Voltammetry Advanced

Run on channel : 2 (SN 69290)
User :
CE vs. WE compliance from -10 V to 10 V
Electrode connection : standard
Potential control : Ewe
Ewe ctrl range : min = -1.00 V, max = 1.00 V
Safety Limits :
	Do not start on E overload
Acquisition started on : 11/12/2025 14:40:45.077
Loaded Setting File :  C:\Users\User\Documents\EC-Lab\Data\Yatsuzuka\20251112_2-148_alpha_reproducibility\20251112_2-148_002_alpha_reproducibility_2_K1.mps
Saved on :
	File : 20251112_2-148_002_alpha_reproducibility_2_K2_01_CVA_C02.mpr
	Directory : C:\Users\User\Documents\EC-Lab\Data\Yatsuzuka\20251112_2-148_alpha_reproducibility\
	Host : 192.109.209.127
Device : SP-150e (SN .003883)
Address : 192.109.209.128
EC-LAB for windows v11.52 (software)
Internet server v11.52 (firmware)
Command interpretor v11.50 (firmware)
Electrode material :
Initial state :
Electrolyte :
Comments :
Electrode surface area : 0.001 cm2
Characteristic mass : 0.001 g
Equivalent Weight : 0.000 g/eq.
Density : 0.000 g/cm3
Volume (V) : 0.001 cm3
Cycle Definition : Charge/Discharge alternance
Ei (V)              0.350
vs.                 Ref
ti (h:m:s)          0:00:10.0000
dti (s)             0.0000
dE/dt               10.000
dE/dt unit          mV/s
E1 (V)              0.450
vs.                 Ref
t1 (h:m:s)          0:00:0.0000
dt1 (s)             0.1000
Step percent        50
N                   10
E range min (V)     -1.000
E range max (V)     1.000
I Range             Auto
I Range min         Unset
I Range max         Unset
I Range init        Unset
Bandwidth           5
E2 (V)              0.350
vs.                 Ref
t2 (h:m:s)          0:00:0.0000
dt2 (s)             0.1000
nc cycles           9
nr                  1
Reverse Scan        0
Ef (V)              0.000
vs.                 Eoc
tf (h:m:s)          0:00:0.0000
dtf (s)             0.1000

mode	ox/red	error	control changes	Ns changes	counter inc.	time/s	control/V	Ewe/V	<I>/mA	cycle number	(Q-Qo)/C	I Range	Ns	step time/s	Pwe/W	Rwe/Ohm
2	0	0	0	0	0	0.000000000000000E+000	0.349989	0.349476	-0.000494439	1	0.0000000E+000	13	0	0.000000000000000E+000	-1.72795e-07	706814
2	1	0	1	0	0	1.9353	0.369341	0.368916	0.0340171	1	6.68363e-05	13	0	1.9078	1.25495e-05	10845
2	1	0	1	0	0	3.8331	0.388319	0.387902	0.0244216	1	0.000129689	13	0	3.8056	9.47321e-06	15883.5
2	1	0	1	0	0	5.7308	0.407296	0.406851	0.0226516	1	0.000188093	13	0	5.7033	9.21583e-06	17961.3
2	1	0	1	0	0	7.6285	0.426274	0.42582	0.0282947	1	0.000242432	13	0	7.601	1.20484e-05	15049.5
2	1	0	1	0	0	9.5263	0.445251	0.444818	0.0330058	1	0.000293752	13	0	9.4988	1.46816e-05	13477
2	0	0	1	0	0	11.3748	0.436263	0.435741	-0.029354	1	0.00027655	13	0	1.2985	-1.27907e-05	14844.4
2	0	0	1	0	0	13.2726	0.417283	0.416764	-0.0233319	1	0.000228229	13	0	3.1963	-9.72389e-06	17862.4
2	0	0	1	0	0	15.1703	0.398307	0.397844	-0.0214194	1	0.000174628	13	0	5.094	-8.52156e-06	18574
2	0	0	1	0	0	17.0681	0.379329	0.378878	-0.0305599	1	0.000115013	13	0	6.9918	-1.15785e-05	12397.9
2	0	0	1	0	0	18.9659	0.360352	0.359854	-0.0445156	1	4.85203e-05	13	0	8.8896	-1.60191e-05	8083.77
2	1	0	1	0	1	20.7903	0.357905	0.357434	0.0377277	2	3.26159e-05	13	0	0.7592	1.34852e-05	9474.06
2	1	0	1	0	1	22.688	0.376882	0.376447	0.041125	2	9.61789e-05	13	0	2.6569	1.54814e-05	9153.71
2	1	0	1	0	1	24.5857	0.39586	0.395454	0.035932	2	0.000156286	13	0	4.5546	1.42095e-05	11005.6
2	1	0	1	0	1	26.4835	0.414837	0.414381	0.0254523	2	0.000212295	13	0	6.4524	1.0547e-05	16280.7
2	1	0	1	0	1	28.3813	0.433815	0.433323	0.0190842	2	0.000264872	13	0	8.3502	8.26965e-06	22705.8
2	0	0	1	0	1	30.2847	0.447149	0.446627	-0.0218141	2	0.000302554	13	0	0.2447	-9.74276e-06	20474.3
2	0	0	1	0	1	32.1825	0.428171	0.427693	-0.0195066	2	0.000257844	13	0	2.1425	-8.34283e-06	21925.6
2	0	0	1	0	1	34.0802	0.409195	0.408741	-0.0215066	2	0.000207102	13	0	4.0402	-8.79064e-06	19005.3
2	0	0	1	0	1	35.9779	0.390216	0.389799	-0.0330434	2	0.000150937	13	0	5.9379	-1.28803e-05	11796.6
2	0	0	1	0	1	37.8757	0.371239	0.370726	-0.0430442	2	8.84938e-05	13	0	7.8357	-1.59576e-05	8612.67
2	0	0	1	0	1	39.7735	0.352261	0.351759	-0.0434534	2	1.88242e-05	13	0	9.7335	-1.52851e-05	8095.09
2	1	0	1	0	0	41.6379	0.366395	0.365935	0.0253507	3	6.21149e-05	13	0	1.6082	9.27671e-06	14434.9
2	1	0	1	0	0	43.5356	0.385372	0.384929	0.0332393	3	0.000124288	13	0	3.5059	1.27947e-05	11580.5
2	1	0	1	0	0	45.4333	0.40435	0.403932	0.0369681	3	0.000182563	13	0	5.4036	1.49326e-05	10926.5
2	1	0	1	0	0	47.3311	0.423327	0.42291	0.0233442	3	0.000236882	13	0	7.3014	9.8725e-06	18116.3
2	1	0	1	0	0	49.2289	0.442305	0.441774	0.0224974	3	0.000288112	13	0	9.1992	9.93879e-06	19636.7
2	0	0	1	0	0	51.1323	0.438659	0.438165	-0.0164759	3	0.000284328	13	0	1.0937	-7.21916e-06	26594.2
2	0	0	1	0	0	53.0301	0.419681	0.419194	-0.0304983	3	0.000236584	13	0	2.9915	-1.27847e-05	13744.8
2	0	0	1	0	0	54.9278	0.400704	0.400198	-0.0352674	3	0.000183463	13	0	4.8892	-1.41139e-05	11347.5
2	0	0	1	0	0	56.8255	0.381726	0.381229	-0.0274174	3	0.000124583	13	0	6.7869	-1.04523e-05	13904.6
2	0	0	1	0	0	58.7233	0.362749	0.362249	-0.0292309	3	5.90917e-05	13	0	8.6847	-1.05889e-05	12392.7
2	1	0	1	0	1	60.5577	0.355607	0.355165	0.0316948	4	2.6474e-05	12	0	0.5294	1.12569e-05	11205.8
2	1	0	1	0	1	62.4855	0.374884	0.374483	0.0324428	4	9.16997e-05	13	0	2.4572	1.21493e-05	11542.9
2	1	0	1	0	1	64.3832	0.393862	0.39339	0.0226975	4	0.000152118	13	0	4.3549	8.92897e-06	17331.9
2	1	0	1	0	1	66.2809	0.41284	0.412358	0.0322361	4	0.000208505	13	0	6.2526	1.32928e-05	12791.8
2	1	0	1	0	1	68.1787	0.431817	0.431374	0.0330543	4	0.000261433	13	0	8.1504	1.42588e-05	13050.5
2	1	0	1	0	1	70.0222	0.449747	0.449223	-0.00112783	4	0.000309244	13	0	9.9939	-5.06648e-07	398308
2	0	0	1	0	1	71.92	0.430767	0.430298	-0.0204659	4	0.000266186	13	0	1.8479	-8.80643e-06	21025.1
2	0	0	1	0	1	73.8177	0.411791	0.411274	-0.0352797	4	0.000216112	13	0	3.7456	-1.45096e-05	11657.5
2	0	0	1	0	1	75.7155	0.392813	0.392301	-0.0313968	4	0.000160701	13	0	5.6434	-1.2317e-05	12494.9
2	0	0	1	0	1	77.6133	0.373836	0.37336	-0.0262793	4	9.92287e-05	13	0	7.5412	-9.81164e-06	14207.4
2	0	0	1	0	1	79.511	0.354857	0.354435	-0.0429353	4	3.06841e-05	13	0	9.4389	-1.52178e-05	8255.11
2	1	0	1	0	0	81.3354	0.363398	0.362971	0.0414467	5	5.42551e-05	13	0	1.2585	1.50439e-05	8757.53
2	1	0	1	0	0	83.2331	0.382376	0.381939	0.0324206	5	0.000117026	13	0	3.1562	1.23827e-05	11780.8
2	1	0	1	0	0	85.1309	0.401353	0.400871	0.0230532	5	0.000175845	13	0	5.054	9.24137e-06	17389
2	1	0	1	0	0	87.0287	0.420331	0.419871	0.0347688	5	0.000230723	13	0	6.9518	1.45984e-05	12076.1
2	1	0	1	0	0	88.9264	0.439308	0.438861	0.0250324	5	0.000282392	13	0	8.8495	1.09858e-05	17531.7
2	0	0	1	0	0	90.8299	0.441655	0.441117	-0.0259183	5	0.000293408	13	0	0.8091	-1.1433e-05	17019.5
2	0	0	1	0	0	92.7276	0.422678	0.42217	-0.0185733	5	0.000246693	13	0	2.7068	-7.84109e-06	22730
2	0	0	1	0	0	94.6253	0.4037	0.403253	-0.0322934	5	0.000194489	13	0	4.6045	-1.30224e-05	12487.2
2	0	0	1	0	0	96.5231	0.384723	0.384251	-0.039031	5	0.000136491	13	0	6.5023	-1.49977e-05	9844.77
2	0	0	1	0	0	98.4209	0.365745	0.365303	-0.0293476	5	7.20945e-05	13	0	8.4001	-1.07207e-05	12447.5
2	1	0	1	0	1	100.225	0.352311	0.351859	0.0324806	6	1.86295e-05	13	0	0.1998	1.14286e-05	10832.9
2	1	0	1	0	1	102.123	0.371289	0.370897	0.0257977	6	8.19938e-05	13	0	2.0976	9.5683e-06	14377.1
2	1	0	1	0	1	104.021	0.390266	0.389816	0.0392471	6	0.000143181	13	0	3.9953	1.52991e-05	9932.36
2	1	0	1	0	1	105.918	0.409244	0.408798	0.0274202	6	0.000200303	13	0	5.893	1.12093e-05	14908.6
2	1	0	1	0	1	107.816	0.428221	0.427733	0.0220506	6	0.000253725	13	0	7.7908	9.43177e-06	19397.8
2	1	0	1	0	1	109.714	0.447199	0.446741	0.033479	6	0.000304233	13	0	9.6886	1.49564e-05	13343.9
2	0	0	1	0	1	111.518	0.434764	0.434254	-0.0311164	6	0.000278051	13	0	1.4484	-1.35124e-05	13955.8
2	0	0	1	0	1	113.415	0.415786	0.41526	-0.0242106	6	0.000229142	13	0	3.3461	-1.00537e-05	17152
2	0	0	1	0	1	115.313	0.396808	0.396314	-0.0258576	6	0.000175045	13	0	5.2438	-1.02477e-05	15326.8
2	0	0	1	0	1	117.211	0.377831	0.377345	-0.0422007	6	0.000114913	13	0	7.1416	-1.59242e-05	8941.68
2	0	0	1	0	1	119.109	0.358854	0.358345	-0.0309933	6	4.79527e-05	13	0	9.0394	-1.11063e-05	11562
2	1	0	1	0	0	120.933	0.359403	0.358968	0.0249138	7	4.31694e-05	13	0	0.909	8.94327e-06	14408.4
2	1	0	1	0	0	122.831	0.37838	0.377948	0.0366077	7	0.000106441	13	0	2.8068	1.38358e-05	10324.3
2	1	0	1	0	0	124.729	0.397359	0.396949	0.0332704	7	0.000166138	13	0	4.7045	1.32067e-05	11931
2	1	0	1	0	0	126.626	0.416335	0.415872	0.0220726	7	0.000221742	13	0	6.6022	9.17939e-06	18841.1
2	1	0	1	0	0	128.524	0.435313	0.434856	0.034043	7	0.000273996	13	0	8.5	1.48038e-05	12773.7
2	0	0	1	0	0	130.427	0.445651	0.445171	-0.0279523	7	0.000304184	13	0	0.4095	-1.24436e-05	15926.1
2	0	0	1	0	0	132.325	0.426673	0.426165	-0.0245195	7	0.000258748	13	0	2.3073	-1.04494e-05	17380.6
2	0	0	1	0	0	134.223	0.407696	0.407213	-0.0216631	7	0.000207645	13	0	4.2051	-8.8215e-06	18797.6
2	0	0	1	0	0	136.121	0.388718	0.388257	-0.0394738	7	0.000151046	13	0	6.1028	-1.5326e-05	9835.81
2	0	0	1	0	0	138.018	0.369741	0.36921	-0.0295566	7	8.81684e-05	13	0	8.0005	-1.09126e-05	12491.6
2	0	0	1	0	0	139.916	0.350763	0.350273	-0.0379326	7	1.81279e-05	13	0	9.8983	-1.32868e-05	9234.09
2	1	0	1	0	1	141.781	0.367893	0.367496	0.0324922	8	7.28783e-05	13	0	1.758	1.19408e-05	11310.3
2	1	0	1	0	1	143.678	0.386869	0.386427	0.028352	8	0.000134638	13	0	3.6557	1.0956e-05	13629.6
2	1	0	1	0	1	145.576	0.405848	0.405429	0.0368693	8	0.000192509	13	0	5.5534	1.49479e-05	10996.4
2	1	0	1	0	1	147.474	0.424825	0.424398	0.0211423	8	0.000246506	13	0	7.4512	8.97277e-06	20073.4
2	1	0	1	0	1	149.372	0.443803	0.443328	0.0266714	8	0.000297442	13	0	9.349	1.18242e-05	16621.8
2	0	0	1	0	1	151.275	0.437161	0.436691	-0.0205935	8	0.000285859	13	0	1.2585	-8.99299e-06	21205.3
2	0	0	1	0	1	153.173	0.418183	0.417702	-0.0345334	8	0.000237657	13	0	3.1563	-1.44247e-05	12095.6
2	0	0	1	0	1	155.071	0.399206	0.398728	-0.023708	8	0.000184192	13	0	5.0541	-9.45306e-06	16818.3
2	0	0	1	0	1	156.968	0.380228	0.379766	-0.0331051	8	0.000124969	13	0	6.9518	-1.25722e-05	11471.5
2	0	0	1	0	1	158.866	0.361251	0.360738	-0.0439369	8	5.8978e-05	13	0	8.8495	-1.58497e-05	8210.36
2	1	0	1	0	0	160.73	0.357405	0.356944	0.0272195	9	3.89834e-05	13	0	0.6442	9.71583e-06	13113.5
2	1	0	1	0	0	162.628	0.376383	0.375916	0.0412437	9	0.000102433	13	0	2.542	1.55042e-05	9114.5
2	1	0	1	0	0	164.526	0.39536	0.394921	0.0287771	9	0.000162495	13	0	4.4397	1.13647e-05	13723.5
2	1	0	1	0	0	166.424	0.414338	0.413871	0.023021	9	0.000218418	13	0	6.3374	9.52773e-06	17978
2	1	0	1	0	0	168.321	0.433315	0.432882	0.0343897	9	0.000271027	13	0	8.2352	1.48867e-05	12587.6
2	0	0	1	0	0	170.21	0.447798	0.447312	-0.0213114	9	0.000310834	12	0	0.1948	-9.53284e-06	20989.4
2	0	0	1	0	0	172.123	0.428671	0.428209	-0.0246062	9	0.000266152	13	0	2.1075	-1.05366e-05	17402.5
2	0	0	1	0	0	174.02	0.409693	0.409224	-0.0238039	9	0.000215616	13	0	4.0053	-9.74112e-06	17191.5
2	0	0	1	0	0	175.918	0.390716	0.390255	-0.0386283	9	0.000159683	13	0	5.9031	-1.50749e-05	10102.8
2	0	0	1	0	0	177.816	0.371738	0.371264	-0.0257083	9	9.76018e-05	13	0	7.8008	-9.54457e-06	14441.4
2	0	0	1	0	0	179.714	0.352761	0.352292	-0.0446758	9	2.84142e-05	13	0	9.6985	-1.57389e-05	7885.53
2	1	0	1	0	1	181.578	0.365895	0.365433	0.0244507	10	6.88733e-05	13	0	1.4932	8.93511e-06	14945.7
2	1	0	1	0	1	183.476	0.384873	0.38441	0.0394007	10	0.00013103	13	0	3.391	1.5146e-05	9756.44
2	1	0	1	0	1	185.374	0.40385	0.403472	0.0237852	10	0.000189278	13	0	5.2887	9.59667e-06	16963.2
2	1	0	1	0	1	187.271	0.422828	0.422357	0.032707	10	0.000243547	13	0	7.1864	1.3814e-05	12913.4
2	1	0	1	0	1	189.169	0.441805	0.441339	0.0235017	10	0.000294735	13	0	9.0842	1.03722e-05	18779
2	0	0	1	0	1	191.077	0.439108	0.438551	-0.0183719	10	0.000292787	13	0	0.9988	-8.05702e-06	23870.8
2	0	0	1	0	1	192.975	0.420131	0.419627	-0.0317407	10	0.000245281	13	0	2.8966	-1.33193e-05	13220.5
2	0	0	1	0	1	194.873	0.401153	0.400723	-0.0254387	10	0.00019243	13	0	4.7944	-1.01939e-05	15752.5
2	0	0	1	0	1	196.771	0.382177	0.381745	-0.0356771	10	0.000133912	13	0	6.6921	-1.36196e-05	10700
2	0	0	1	0	1	198.668	0.363198	0.362704	-0.0343678	10	6.87326e-05	13	0	8.5898	-1.24654e-05	10553.6
2	0	0	1	0	1	199.986	0.349989	0.349572	-0.0409005	10	1.93708e-05	13	0	9.9073	-1.42977e-05	8546.89