File: ACS_Catal_2026/Figures_Na_K/main_figures/data/EC/20251112_2-148_alpha_reproducibility/20251112_2-148_006_gamma_reproducibility_2_Na2_02_PEIS_C02.mpt
EC-Lab ASCII FILE
Nb header lines : 63

Potentio Electrochemical Impedance Spectroscopy

Run on channel : 2 (SN 69290)
User :
CE vs. WE compliance from -10 V to 10 V
Electrode connection : standard
Potential control : Ewe
Ewe ctrl range : min = -1.00 V, max = 1.00 V
Safety Limits :
	Do not start on E overload
Acquisition started on : 11/12/2025 21:00:04.183
Loaded Setting File :  C:\Users\User\Documents\EC-Lab\Data\Yatsuzuka\20251112_2-148_alpha_reproducibility\20251112_2-148_002_alpha_reproducibility_2_K1.mps
Saved on :
	File : 20251112_2-148_006_gamma_reproducibility_2_Na2_r_02_PEIS_C02.mpr
	Directory : C:\Users\User\Documents\EC-Lab\Data\Yatsuzuka\20251112_2-148_alpha_reproducibility\
	Host : 192.109.209.127
Device : SP-150e (SN .003883)
Address : 192.109.209.128
EC-Lab for windows v11.52 (software)
Internet server v11.52 (firmware)
Command interpretor v11.50 (firmware)
Electrode material :
Initial state :
Electrolyte :
Comments :
Electrode surface area : 0.001 cm2
Characteristic mass : 0.001 g
Equivalent Weight : 0.000 g/eq.
Density : 0.000 g/cm3
Volume (V) : 0.001 cm3
Cycle Definition : Charge/Discharge alternance
Mode                Single sine
E (V)               0.4500
vs.                 Ref
tE (h:m:s)          0:00:0.0000
record              0
dI                  0.000
unit dI             mA
dt (s)              0.000
fi                  500.000
unit fi             kHz
ff                  1.000
unit ff             Hz
Nd                  6
Points              per decade
spacing             Logarithmic
Va (mV)             10.0
pw                  0.10
Na                  2
corr                0
E range min (V)     -1.000
E range max (V)     1.000
I Range             Auto
Bandwidth           5
nc cycles           0
goto Ns'            0
nr cycles           0
inc. cycle          0

freq/Hz	Re(Z)/Ohm	-Im(Z)/Ohm	|Z|/Ohm	Phase(Z)/deg	time/s	<Ewe>/V	<I>/mA	Cs/uF	Cp/uF	cycle number	I Range	|Ewe|/V	|I|/A	Ns	(Q-Qo)/mA.h	Re(Y)/Ohm-1	Im(Y)/Ohm-1	|Y|/Ohm-1	Phase(Y)/deg	Re(C)/nF	Im(C)/nF	|C|/nF	Phase(C)/deg	Re(M)	Im(M)	|M|	Phase(M)/deg	Re(Permittivity)	Im(Permittivity)	|Permittivity|	Phase(Permittivity)/deg	Re(Resistivity)/Ohm.cm	Im(Resistivity)/Ohm.cm	|Resistivity|/Ohm.cm	Phase(Resistivity)/deg	Re(Conductivity)/mS/cm	Im(Conductivity)/mS/cm	|Conductivity|/mS/cm	Phase(Conductivity)/deg	Tan(Delta)	Loss Angle(Delta)/deg	dq/mA.h
500019	18.3485	-2.48378	18.5158	7.70908	201.934	0.449777	0.0179501	-0.128151	-0.002306	1	10	0.00605109	0.000326806	0	2.96369e-05	0.0535197	-0.00724478	0.0540078	-7.70908	-2.306	17.0352	17.1906	-97.7091	0.0000000E+000	0.0000000E+000	0.0000000E+000	97.7091	0.0000000E+000	0.0000000E+000	0.0000000E+000	-97.7091	0.0000000E+000	0.0000000E+000	0.0000000E+000	7.70908	0.0000000E+000	0.0000000E+000	0.0000000E+000	-7.70908	7.38734	82.2909	2.96369e-05
231063	11.6528	-0.859195	11.6844	4.21697	202.642	0.449545	0.0190744	-0.801676	-0.00433481	1	10	0.0107089	0.000916513	0	3.50335e-05	0.0853525	-0.00629331	0.0855842	-4.21697	-4.3348	58.7905	58.9501	-94.217	0.0000000E+000	0.0000000E+000	0.0000000E+000	94.217	0.0000000E+000	0.0000000E+000	0.0000000E+000	-94.217	0.0000000E+000	0.0000000E+000	0.0000000E+000	4.21697	0.0000000E+000	0.0000000E+000	0.0000000E+000	-4.21697	13.5624	85.783	3.35801e-06
106786	10.8487	-0.119571	10.8494	0.63147	203.622	0.449547	0.0195965	-12.4646	-0.00151398	1	10	0.0107924	0.000994751	0	3.88616e-05	0.0921654	-0.00101582	0.092171	-0.63147	-1.51398	137.364	137.372	-90.6315	0.0000000E+000	0.0000000E+000	0.0000000E+000	90.6315	0.0000000E+000	0.0000000E+000	0.0000000E+000	-90.6315	0.0000000E+000	0.0000000E+000	0.0000000E+000	0.63147	0.0000000E+000	0.0000000E+000	0.0000000E+000	-0.63147	90.7303	89.3685	7.70794e-07
49352.4	10.8167	0.0664416	10.8169	-0.351934	204.467	0.449554	0.01875	48.5369	0.00183123	1	10	0.0106083	0.000980711	0	4.36535e-05	0.0924459	0.000567847	0.0924476	0.351934	1.83125	298.126	298.132	-89.6481	0.0000000E+000	0.0000000E+000	0.0000000E+000	89.6481	0.0000000E+000	0.0000000E+000	0.0000000E+000	-89.6481	0.0000000E+000	0.0000000E+000	0.0000000E+000	-0.351934	0.0000000E+000	0.0000000E+000	0.0000000E+000	0.351934	162.801	89.6481	1.80981e-06
22806.6	10.8582	0.131207	10.859	-0.692306	205.311	0.449556	0.01831	53.1868	0.00776486	1	10	0.0104167	0.000959264	0	4.93515e-05	0.0920824	0.00111269	0.0920892	0.692306	7.76487	642.595	642.642	-89.3077	0.0000000E+000	0.0000000E+000	0.0000000E+000	89.3077	0.0000000E+000	0.0000000E+000	0.0000000E+000	-89.3077	0.0000000E+000	0.0000000E+000	0.0000000E+000	-0.692306	0.0000000E+000	0.0000000E+000	0.0000000E+000	0.692306	82.7567	89.3077	2.0191e-06
10540.4	10.9084	0.183839	10.91	-0.965507	206.156	0.449559	0.0190633	82.1348	0.0233212	1	10	0.0101744	0.000932581	0	5.14112e-05	0.0916461	0.0015445	0.0916591	0.965507	23.3213	1383.81	1384.01	-89.0345	0.0000000E+000	0.0000000E+000	0.0000000E+000	89.0345	0.0000000E+000	0.0000000E+000	0.0000000E+000	-89.0345	0.0000000E+000	0.0000000E+000	0.0000000E+000	-0.965507	0.0000000E+000	0.0000000E+000	0.0000000E+000	0.965507	59.3371	89.0345	1.32529e-06
4871.56	10.9671	0.278617	10.9706	-1.45528	207.148	0.449559	0.0186866	117.258	0.0756307	1	10	0.0106833	0.000973806	0	5.69484e-05	0.0911232	0.00231497	0.0911526	1.45528	75.6305	2977.01	2977.98	-88.5447	0.0000000E+000	0.0000000E+000	0.0000000E+000	88.5447	0.0000000E+000	0.0000000E+000	0.0000000E+000	-88.5447	0.0000000E+000	0.0000000E+000	0.0000000E+000	-1.45528	0.0000000E+000	0.0000000E+000	0.0000000E+000	1.45528	39.3625	88.5447	2.30674e-06
2250.72	11.0251	0.47809	11.0355	-2.483	208.3	0.449566	0.0190036	147.907	0.277604	1	10	0.0101278	0.000917747	0	6.36346e-05	0.0905317	0.00392579	0.0906168	2.483	277.604	6401.76	6407.77	-87.517	0.0000000E+000	0.0000000E+000	0.0000000E+000	87.517	0.0000000E+000	0.0000000E+000	0.0000000E+000	-87.517	0.0000000E+000	0.0000000E+000	0.0000000E+000	-2.483	0.0000000E+000	0.0000000E+000	0.0000000E+000	2.483	23.0608	87.517	5.13806e-06
1040.33	11.0993	0.890049	11.1349	-4.58471	209.23	0.449564	0.019108	171.883	1.09821	1	10	0.0102038	0.000916377	0	6.79061e-05	0.08952	0.00717857	0.0898074	4.58471	1098.21	13695.2	13739.1	-85.4153	0.0000000E+000	0.0000000E+000	0.0000000E+000	85.4153	0.0000000E+000	0.0000000E+000	0.0000000E+000	-85.4153	0.0000000E+000	0.0000000E+000	0.0000000E+000	-4.58471	0.0000000E+000	0.0000000E+000	0.0000000E+000	4.58471	12.4704	85.4153	2.15865e-06
480.769	11.2357	1.75878	11.3725	-8.89664	210.16	0.449562	0.0188022	188.223	4.50179	1	10	0.0102297	0.000899516	0	7.25899e-05	0.0868737	0.0135988	0.0879316	8.89664	4501.79	28758.9	29109.1	-81.1034	0.0000000E+000	0.0000000E+000	0.0000000E+000	81.1034	0.0000000E+000	0.0000000E+000	0.0000000E+000	-81.1034	0.0000000E+000	0.0000000E+000	0.0000000E+000	-8.89664	0.0000000E+000	0.0000000E+000	0.0000000E+000	8.89664	6.38832	81.1034	2.38896e-06
222.061	11.4193	3.54476	11.9568	-17.2454	211.084	0.449563	0.0184908	202.191	17.7708	1	10	0.0102271	0.000855337	0	7.75202e-05	0.0798746	0.0247946	0.0836345	17.2454	17770.8	57247.5	59942.3	-72.7546	0.0000000E+000	0.0000000E+000	0.0000000E+000	72.7546	0.0000000E+000	0.0000000E+000	0.0000000E+000	-72.7546	0.0000000E+000	0.0000000E+000	0.0000000E+000	-17.2454	0.0000000E+000	0.0000000E+000	0.0000000E+000	17.2454	3.22145	72.7546	2.99473e-06
102.667	11.7429	7.29473	13.8242	-31.8488	212.021	0.449568	0.0190688	212.509	59.1724	1	10	0.0102223	0.000739452	0	8.11726e-05	0.0614463	0.0381708	0.0723371	31.8488	59172.4	95254	112137	-58.1512	0.0000000E+000	0.0000000E+000	0.0000000E+000	58.1512	0.0000000E+000	0.0000000E+000	0.0000000E+000	-58.1512	0.0000000E+000	0.0000000E+000	0.0000000E+000	-31.8488	0.0000000E+000	0.0000000E+000	0.0000000E+000	31.8488	1.60977	58.1512	1.74688e-06
47.4443	12.3376	15.1414	19.5315	-50.8261	213.178	0.449552	0.000940655	221.549	133.148	1	11	0.0102495	0.00052477	0	8.46028e-05	0.0323415	0.0396915	0.0511995	50.8261	133148	108491	171752	-39.1739	0.0000000E+000	0.0000000E+000	0.0000000E+000	39.1739	0.0000000E+000	0.0000000E+000	0.0000000E+000	-39.1739	0.0000000E+000	0.0000000E+000	0.0000000E+000	-50.8261	0.0000000E+000	0.0000000E+000	0.0000000E+000	50.8261	0.814821	39.1739	1.35666e-06
21.9144	13.5467	31.5499	34.3353	-66.7626	214.046	0.449555	0.000362876	230.193	194.36	1	11	0.0102207	0.000297672	0	8.54183e-05	0.0114909	0.0267619	0.0291246	66.7626	194360	83453.1	211519	-23.2374	0.0000000E+000	0.0000000E+000	0.0000000E+000	23.2374	0.0000000E+000	0.0000000E+000	0.0000000E+000	-23.2374	0.0000000E+000	0.0000000E+000	0.0000000E+000	-66.7626	0.0000000E+000	0.0000000E+000	0.0000000E+000	66.7626	0.429374	23.2374	9.26649e-07
10.1329	15.8161	66.0626	67.9294	-76.5362	214.975	0.44956	0.000671875	237.755	224.866	1	11	0.0102151	0.000150378	0	8.55484e-05	0.00342754	0.0143166	0.0147212	76.5362	224866	53835.3	231220	-13.4638	0.0000000E+000	0.0000000E+000	0.0000000E+000	13.4638	0.0000000E+000	0.0000000E+000	0.0000000E+000	-13.4638	0.0000000E+000	0.0000000E+000	0.0000000E+000	-76.5362	0.0000000E+000	0.0000000E+000	0.0000000E+000	76.5362	0.239411	13.4638	-2.02088e-07
4.68375	21.1079	138.437	140.037	-81.3307	216.092	0.449571	-0.000313016	245.456	239.879	1	12	0.0102144	7.29407e-05	0	8.56178e-05	0.00107636	0.00705938	0.00714096	81.3307	239879	36575	242652	-8.66927	0.0000000E+000	0.0000000E+000	0.0000000E+000	8.66927	0.0000000E+000	0.0000000E+000	0.0000000E+000	-8.66927	0.0000000E+000	0.0000000E+000	0.0000000E+000	-81.3307	0.0000000E+000	0.0000000E+000	0.0000000E+000	81.3307	0.152473	8.66928	3.46601e-07
2.16533	30.435	288.982	290.581	-83.9879	217.809	0.449576	0.000388264	254.346	251.556	1	12	0.0102089	3.51328e-05	0	8.50562e-05	0.000360445	0.00342246	0.00344138	83.9879	251556	26493.3	252947	-6.01209	0.0000000E+000	0.0000000E+000	0.0000000E+000	6.01209	0.0000000E+000	0.0000000E+000	0.0000000E+000	-6.01209	0.0000000E+000	0.0000000E+000	0.0000000E+000	-83.9879	0.0000000E+000	0.0000000E+000	0.0000000E+000	83.9879	0.105318	6.01208	-6.71551e-07
1.00006	48.5778	602.855	604.809	-85.3931	222.149	0.449577	0.000144842	263.985	262.282	1	13	0.0102118	1.68843e-05	0	8.53058e-05	0.000132801	0.00164807	0.00165341	85.3931	262282	21134.6	263132	-4.60691	0.0000000E+000	0.0000000E+000	0.0000000E+000	4.60691	0.0000000E+000	0.0000000E+000	0.0000000E+000	-4.60691	0.0000000E+000	0.0000000E+000	0.0000000E+000	-85.3931	0.0000000E+000	0.0000000E+000	0.0000000E+000	85.3931	0.0805795	4.6069	4.96063e-07