File: ACS_Catal_2026/Figures_Na_K/main_figures/data/EC/20251112_2-148_alpha_reproducibility/20251112_2-148_003_alpha_Na_first_1_K2_01_CVA_C01.mpt
EC-Lab ASCII FILE
Nb header lines : 66

Cyclic Voltammetry Advanced

Run on channel : 1 (SN 69187)
User :
CE vs. WE compliance from -10 V to 10 V
Electrode connection : standard
Potential control : Ewe
Ewe ctrl range : min = -1.00 V, max = 1.00 V
Safety Limits :
	Do not start on E overload
Acquisition started on : 11/12/2025 17:41:45.774
Loaded Setting File :  C:\Users\User\Documents\EC-Lab\Data\Yatsuzuka\20251030_2-147_gamma_reproducibility\20251030_2-147_001_gamma1_K_1.mps
Saved on :
	File : 20251112_2-148_003_alpha_Na_first_1_K2_01_CVA_C01.mpr
	Directory : C:\Users\User\Documents\EC-Lab\Data\Yatsuzuka\20251112_2-148_alpha_reproducibility\
	Host : 192.109.209.127
Device : SP-150e (SN .003883)
Address : 192.109.209.128
EC-Lab for windows v11.52 (software)
Internet server v11.52 (firmware)
Command interpretor v11.50 (firmware)
Electrode material :
Initial state :
Electrolyte :
Comments :
Electrode surface area : 0.001 cm2
Characteristic mass : 0.001 g
Equivalent Weight : 0.000 g/eq.
Density : 0.000 g/cm3
Volume (V) : 0.001 cm3
Cycle Definition : Charge/Discharge alternance
Ei (V)              0.350
vs.                 Ref
ti (h:m:s)          0:00:10.0000
dti (s)             0.0000
dE/dt               10.000
dE/dt unit          mV/s
E1 (V)              0.450
vs.                 Ref
t1 (h:m:s)          0:00:0.0000
dt1 (s)             0.1000
Step percent        50
N                   10
E range min (V)     -1.000
E range max (V)     1.000
I Range             Auto
I Range min         Unset
I Range max         Unset
I Range init        Unset
Bandwidth           5
E2 (V)              0.350
vs.                 Ref
t2 (h:m:s)          0:00:0.0000
dt2 (s)             0.1000
nc cycles           9
nr                  1
Reverse Scan        0
Ef (V)              0.000
vs.                 Eoc
tf (h:m:s)          0:00:0.0000
dtf (s)             0.1000

mode	ox/red	error	control changes	Ns changes	counter inc.	time/s	control/V	Ewe/V	<I>/mA	cycle number	(Q-Qo)/C	I Range	Ns	step time/s	P/W
2	0	0	0	0	0	0.000000000000000E+000	0.34995	0.349609	-0.00490859	1	0.0000000E+000	13	0	0.000000000000000E+000	-1.71609e-06
2	1	0	1	0	0	1.7849	0.3678	0.367591	0.0296466	1	5.79226e-05	13	0	1.7576	1.08978e-05
2	1	0	1	0	0	3.5325	0.385275	0.385011	0.0238888	1	0.000113006	13	0	3.5052	9.19745e-06
2	1	0	1	0	0	5.2801	0.402751	0.402496	0.0201196	1	0.00016424	13	0	5.2528	8.09804e-06
2	1	0	1	0	0	7.0277	0.420227	0.42003	0.0211148	1	0.000212217	13	0	7.0004	8.86885e-06
2	1	0	1	0	0	8.7753	0.437703	0.437447	0.025987	1	0.000257074	13	0	8.748	1.13679e-05
2	0	0	1	0	0	10.4896	0.445142	0.444856	-0.0277181	1	0.000278255	13	0	0.4444	-1.23306e-05
2	0	0	1	0	0	12.2371	0.427667	0.427369	-0.030632	1	0.000239466	13	0	2.1919	-1.30912e-05
2	0	0	1	0	0	13.9847	0.410191	0.409941	-0.0295862	1	0.000195912	13	0	3.9395	-1.21286e-05
2	0	0	1	0	0	15.7323	0.392715	0.39244	-0.0263268	1	0.000147808	13	0	5.6871	-1.03317e-05
2	0	0	1	0	0	17.4799	0.375239	0.374997	-0.0257603	1	9.47209e-05	13	0	7.4347	-9.66003e-06
2	0	0	1	0	0	19.2275	0.357764	0.357468	-0.0282232	1	3.5733e-05	13	0	9.1823	-1.00889e-05
2	1	0	1	0	1	20.9427	0.359411	0.35918	0.0253741	2	3.42928e-05	13	0	0.8938	9.11386e-06
2	1	0	1	0	1	22.6903	0.376887	0.376614	0.0278362	2	8.94537e-05	13	0	2.6414	1.04835e-05
2	1	0	1	0	1	24.4379	0.394363	0.394122	0.0309461	2	0.000141643	13	0	4.389	1.21965e-05
2	1	0	1	0	1	26.1854	0.411838	0.411625	0.0332338	2	0.000190379	13	0	6.1365	1.36799e-05
2	1	0	1	0	1	27.933	0.429314	0.429112	0.0333362	2	0.000236064	13	0	7.8841	1.4305e-05
2	1	0	1	0	1	29.6806	0.446791	0.446586	0.0285902	2	0.000279377	13	0	9.6317	1.2768e-05
2	0	0	1	0	1	31.3749	0.436255	0.435995	-0.0287213	2	0.000259471	13	0	1.3481	-1.25223e-05
2	0	0	1	0	1	33.1225	0.418779	0.41847	-0.0276642	2	0.00021799	13	0	3.0957	-1.15766e-05
2	0	0	1	0	1	34.8701	0.401303	0.401023	-0.0327541	2	0.000172122	13	0	4.8433	-1.31351e-05
2	0	0	1	0	1	36.6177	0.383828	0.383502	-0.034999	2	0.00012161	13	0	6.5909	-1.34222e-05
2	0	0	1	0	1	38.3653	0.366352	0.36603	-0.0341748	2	6.56765e-05	13	0	8.3385	-1.2509e-05
2	0	0	1	0	0	40.003	0.35005	0.349762	-0.0447981	3	7.57131e-06	13	0	9.9762	-1.56687e-05
2	1	0	1	0	0	41.7881	0.3679	0.367673	0.0399203	3	6.227e-05	13	0	1.6926	1.46776e-05
2	1	0	1	0	0	43.5357	0.385375	0.385119	0.0364016	3	0.000116044	13	0	3.4402	1.4019e-05
2	1	0	1	0	0	45.2833	0.402851	0.402613	0.0274603	3	0.000166427	13	0	5.1878	1.10559e-05
2	1	0	1	0	0	47.0309	0.420327	0.420078	0.0198906	3	0.000213637	13	0	6.9354	8.35559e-06
2	1	0	1	0	0	48.7784	0.437802	0.437573	0.017021	3	0.000258094	13	0	8.6829	7.44791e-06
2	0	0	1	0	0	50.5327	0.444643	0.444334	-0.0207377	3	0.000277995	13	0	0.5093	-9.21447e-06
2	0	0	1	0	0	52.2803	0.427167	0.426873	-0.0185101	3	0.000238867	13	0	2.2569	-7.90147e-06
2	0	0	1	0	0	54.0279	0.409692	0.409487	-0.018185	3	0.000195142	13	0	4.0045	-7.44651e-06
2	0	0	1	0	0	55.7755	0.392216	0.391961	-0.0235624	3	0.000146912	13	0	5.7521	-9.23556e-06
2	0	0	1	0	0	57.523	0.374741	0.374484	-0.0331321	3	9.37327e-05	13	0	7.4996	-1.24074e-05
2	0	0	1	0	0	59.2706	0.357265	0.357013	-0.0433827	3	3.474e-05	13	0	9.2472	-1.54882e-05
2	1	0	1	0	1	60.9858	0.35991	0.359694	0.036053	4	3.68922e-05	13	0	0.9587	1.29681e-05
2	1	0	1	0	1	62.7334	0.377386	0.377168	0.0258169	4	9.18946e-05	13	0	2.7063	9.73729e-06
2	1	0	1	0	1	64.481	0.394863	0.394644	0.0212311	4	0.000143893	13	0	4.4539	8.37872e-06
2	1	0	1	0	1	66.2285	0.412338	0.412127	0.0254794	4	0.000192502	13	0	6.2014	1.05008e-05
2	1	0	1	0	1	67.9761	0.429814	0.429589	0.0291293	4	0.000238051	13	0	7.949	1.25136e-05
2	1	0	1	0	1	69.7237	0.44729	0.447067	0.0310153	4	0.000281149	13	0	9.6966	1.38659e-05
2	0	0	1	0	1	71.478	0.435156	0.434917	-0.0182646	4	0.000257532	13	0	1.458	-7.9436e-06
2	0	0	1	0	1	73.2256	0.41768	0.417423	-0.0307282	4	0.000215803	13	0	3.2056	-1.28266e-05
2	0	0	1	0	1	74.9731	0.400205	0.399944	-0.0355705	4	0.000169761	13	0	4.9531	-1.42262e-05
2	0	0	1	0	1	76.7207	0.382729	0.382416	-0.0357013	4	0.000119049	13	0	6.7007	-1.36528e-05
2	0	0	1	0	1	78.4683	0.365253	0.364955	-0.0329202	4	6.28741e-05	13	0	8.4483	-1.20144e-05
2	1	0	1	0	0	80.1536	0.351623	0.351367	0.0316711	5	1.18079e-05	12	0	0.0649	1.11282e-05
2	1	0	1	0	0	81.9311	0.369398	0.369179	0.0277718	5	6.75301e-05	13	0	1.8424	1.02528e-05
2	1	0	1	0	0	83.6787	0.386873	0.386609	0.0311921	5	0.000120935	13	0	3.59	1.20591e-05
2	1	0	1	0	0	85.4263	0.404349	0.404062	0.0333017	5	0.000170941	13	0	5.3376	1.3456e-05
2	1	0	1	0	0	87.1739	0.421825	0.421593	0.0332744	5	0.000217794	13	0	7.0852	1.40282e-05
2	1	0	1	0	0	88.9214	0.4393	0.439081	0.0276311	5	0.000261863	13	0	8.8327	1.21323e-05
2	0	0	1	0	0	90.6757	0.443145	0.442925	-0.0261339	5	0.000275475	13	0	0.5942	-1.15754e-05
2	0	0	1	0	0	92.4233	0.425669	0.425369	-0.0315089	5	0.000235939	13	0	2.3418	-1.34029e-05
2	0	0	1	0	0	94.1709	0.408194	0.40793	-0.0306097	5	0.000191952	13	0	4.0894	-1.24866e-05
2	0	0	1	0	0	95.9185	0.390718	0.390463	-0.027787	5	0.000143394	13	0	5.837	-1.08498e-05
2	0	0	1	0	0	97.666	0.373243	0.37297	-0.02409	5	8.98453e-05	13	0	7.5845	-8.98483e-06
2	0	0	1	0	0	99.4136	0.355766	0.355502	-0.0310009	5	3.03722e-05	13	0	9.3321	-1.10209e-05
2	1	0	1	0	1	101.129	0.361408	0.361136	0.0387238	6	4.3252e-05	13	0	1.1085	1.39846e-05
2	1	0	1	0	1	102.876	0.378885	0.378662	0.0381967	6	9.79442e-05	13	0	2.8561	1.44636e-05
2	1	0	1	0	1	104.624	0.396361	0.396135	0.0311237	6	0.000149493	13	0	4.6037	1.23292e-05
2	1	0	1	0	1	106.371	0.413836	0.413628	0.0234099	6	0.000197733	13	0	6.3512	9.68299e-06
2	1	0	1	0	1	108.119	0.431312	0.431059	0.0176145	6	0.000243029	13	0	8.0988	7.59288e-06
2	1	0	1	0	1	109.867	0.448787	0.448606	0.0171694	6	0.000285966	13	0	9.8464	7.70232e-06
2	0	0	1	0	1	111.621	0.433658	0.433368	-0.0265845	6	0.000254772	13	0	1.6078	-1.15209e-05
2	0	0	1	0	1	113.369	0.416182	0.415909	-0.0268822	6	0.000212743	13	0	3.3554	-1.11805e-05
2	0	0	1	0	1	115.116	0.398707	0.398374	-0.0275089	6	0.000166339	13	0	5.1029	-1.09588e-05
2	0	0	1	0	1	116.864	0.381231	0.380935	-0.0257795	6	0.000115264	13	0	6.8505	-9.82031e-06
2	0	0	1	0	1	118.611	0.363755	0.363497	-0.0272213	6	5.86675e-05	13	0	8.5981	-9.89486e-06
2	1	0	1	0	0	120.326	0.35342	0.353151	0.0237411	7	1.84164e-05	13	0	0.2446	8.38421e-06
2	1	0	1	0	0	122.074	0.370895	0.370666	0.0272894	7	7.3699e-05	13	0	1.9922	1.01152e-05
2	1	0	1	0	0	123.822	0.388371	0.388093	0.0278408	7	0.000126787	13	0	3.7398	1.08048e-05
2	1	0	1	0	0	125.569	0.405847	0.405547	0.0299727	7	0.000176438	13	0	5.4874	1.21553e-05
2	1	0	1	0	0	127.317	0.423322	0.423081	0.0326388	7	0.000222966	13	0	7.2349	1.38088e-05
2	1	0	1	0	0	129.064	0.440798	0.440566	0.0320798	7	0.000266836	13	0	8.9825	1.41333e-05
2	0	0	1	0	0	130.819	0.441647	0.441377	-0.0170289	7	0.000273611	13	0	0.744	-7.51617e-06
2	0	0	1	0	0	132.566	0.424172	0.42392	-0.0226549	7	0.000233676	13	0	2.4916	-9.60385e-06
2	0	0	1	0	0	134.314	0.406696	0.406441	-0.0279649	7	0.000189332	13	0	4.2392	-1.13661e-05
2	0	0	1	0	0	136.061	0.38922	0.389011	-0.0324003	7	0.000140502	13	0	5.9868	-1.26041e-05
2	0	0	1	0	0	137.809	0.371745	0.371522	-0.0388547	7	8.65867e-05	13	0	7.7343	-1.44354e-05
2	0	0	1	0	0	139.557	0.354268	0.353979	-0.0438767	7	2.67379e-05	13	0	9.4819	-1.55314e-05
2	1	0	1	0	1	141.272	0.362906	0.362688	0.0395601	8	4.87709e-05	13	0	1.2583	1.4348e-05
2	1	0	1	0	1	143.019	0.380383	0.38015	0.037523	8	0.000103215	13	0	3.0059	1.42644e-05
2	1	0	1	0	1	144.767	0.397858	0.397606	0.0335742	8	0.000154367	13	0	4.7534	1.33493e-05
2	1	0	1	0	1	146.514	0.415334	0.41513	0.0275359	8	0.000202301	13	0	6.501	1.1431e-05
2	1	0	1	0	1	148.262	0.43281	0.432613	0.0245683	8	0.000247288	13	0	8.2486	1.06286e-05
2	1	0	0	0	1	149.979	0.450011	0.449773	0.0403583	8	0.000289252	13	0	9.9655	1.81521e-05
2	0	0	1	0	1	151.764	0.43216	0.43188	-0.0306644	8	0.000251899	13	0	1.7576	-1.32433e-05
2	0	0	1	0	1	153.511	0.414685	0.414415	-0.0325805	8	0.000209536	13	0	3.5051	-1.35018e-05
2	0	0	1	0	1	155.259	0.397209	0.396882	-0.0338295	8	0.000162838	13	0	5.2527	-1.34263e-05
2	0	0	1	0	1	157.007	0.379733	0.379421	-0.0340135	8	0.000111405	13	0	7.0003	-1.29054e-05
2	0	0	1	0	1	158.754	0.362257	0.361985	-0.0319409	8	5.44398e-05	13	0	8.7479	-1.15621e-05
2	1	0	1	0	0	160.469	0.354918	0.354671	0.0249987	9	2.40896e-05	13	0	0.3944	8.86632e-06
2	1	0	1	0	0	162.217	0.372393	0.372169	0.0228699	9	7.93801e-05	13	0	2.142	8.51148e-06
2	1	0	1	0	0	163.965	0.389869	0.389637	0.0220453	9	0.000132127	13	0	3.8896	8.58964e-06
2	1	0	1	0	0	165.712	0.407345	0.407052	0.0255262	9	0.000181503	13	0	5.6372	1.03905e-05
2	1	0	1	0	0	167.46	0.42482	0.42453	0.0285043	9	0.000227711	13	0	7.3847	1.21009e-05
2	1	0	1	0	0	169.207	0.442296	0.442082	0.0315313	9	0.000271344	13	0	9.1323	1.39394e-05
2	0	0	1	0	0	170.962	0.440149	0.439935	-0.0158768	9	0.00027093	13	0	0.8938	-6.98475e-06
2	0	0	1	0	0	172.709	0.422674	0.422374	-0.0226788	9	0.000230599	13	0	2.6414	-9.57892e-06
2	0	0	1	0	0	174.457	0.405198	0.404883	-0.0299624	9	0.000185907	13	0	4.389	-1.21312e-05
2	0	0	1	0	0	176.204	0.387723	0.387426	-0.0366178	9	0.000136806	13	0	6.1365	-1.41867e-05
2	0	0	1	0	0	177.952	0.370246	0.369991	-0.0405699	9	8.25255e-05	13	0	7.8841	-1.50105e-05
2	0	0	1	0	0	179.7	0.35277	0.352479	-0.0423323	9	2.2243e-05	13	0	9.6317	-1.49213e-05
2	1	0	1	0	1	181.415	0.364405	0.364178	0.0284014	10	5.53837e-05	13	0	1.3431	1.03432e-05
2	1	0	1	0	1	183.162	0.381881	0.381638	0.0217754	10	0.000109622	13	0	3.0907	8.31033e-06
2	1	0	1	0	1	184.91	0.399356	0.399144	0.0208814	10	0.000160512	13	0	4.8382	8.33467e-06
2	1	0	1	0	1	186.657	0.416832	0.416584	0.0246559	10	0.000208141	13	0	6.5858	1.02713e-05
2	1	0	1	0	1	188.405	0.434308	0.434113	0.0276325	10	0.00025285	13	0	8.3334	1.19956e-05
2	0	0	1	0	1	190.129	0.448438	0.4482	-0.0228232	10	0.00028875	12	0	0.065	-1.02294e-05
2	0	0	1	0	1	191.907	0.430662	0.43043	-0.0165425	10	0.000250877	13	0	1.8425	-7.12041e-06
2	0	0	1	0	1	193.654	0.413187	0.412958	-0.0225262	10	0.000208187	13	0	3.59	-9.30237e-06
2	0	0	1	0	1	195.402	0.395711	0.395451	-0.0324281	10	0.000161138	13	0	5.3376	-1.28237e-05
2	0	0	1	0	1	197.15	0.378235	0.377996	-0.036589	10	0.000109374	13	0	7.0852	-1.38305e-05
2	0	0	1	0	1	198.897	0.36076	0.36051	-0.0423119	10	5.19859e-05	13	0	8.8328	-1.52539e-05
2	0	0	0	0	1	199.971	0.35	0.349704	-0.0187359	10	1.36144e-05	13	0	9.9063	-6.55202e-06