File: ACS_Catal_2026/Figures_Na_K/main_figures/data/EC/20251112_2-148_alpha_reproducibility/20251112_2-148_005_gamma_reproducibility_K1_02_PEIS_C01.mpt
EC-Lab ASCII FILE
Nb header lines : 63

Potentio Electrochemical Impedance Spectroscopy

Run on channel : 1 (SN 69187)
User :
CE vs. WE compliance from -10 V to 10 V
Electrode connection : standard
Potential control : Ewe
Ewe ctrl range : min = -1.00 V, max = 1.00 V
Safety Limits :
	Do not start on E overload
Acquisition started on : 11/12/2025 19:09:25.688
Loaded Setting File :  C:\Users\User\Documents\EC-Lab\Data\Yatsuzuka\20251030_2-147_gamma_reproducibility\20251030_2-147_001_gamma1_K_1.mps
Saved on :
	File : 20251112_2-148_005_gamma_reproducibility_K1_02_PEIS_C01.mpr
	Directory : C:\Users\User\Documents\EC-Lab\Data\Yatsuzuka\20251112_2-148_alpha_reproducibility\
	Host : 192.109.209.127
Device : SP-150e (SN .003883)
Address : 192.109.209.128
EC-Lab for windows v11.52 (software)
Internet server v11.52 (firmware)
Command interpretor v11.50 (firmware)
Electrode material :
Initial state :
Electrolyte :
Comments :
Electrode surface area : 0.001 cm2
Characteristic mass : 0.001 g
Equivalent Weight : 0.000 g/eq.
Density : 0.000 g/cm3
Volume (V) : 0.001 cm3
Cycle Definition : Charge/Discharge alternance
Mode                Single sine
E (V)               0.4500
vs.                 Ref
tE (h:m:s)          0:00:0.0000
record              0
dI                  0.000
unit dI             mA
dt (s)              0.000
fi                  500.000
unit fi             kHz
ff                  1.000
unit ff             Hz
Nd                  6
Points              per decade
spacing             Logarithmic
Va (mV)             10.0
pw                  0.10
Na                  2
corr                0
E range min (V)     -1.000
E range max (V)     1.000
I Range             Auto
Bandwidth           5
nc cycles           0
goto Ns'            0
nr cycles           0
inc. cycle          0

freq/Hz	Re(Z)/Ohm	-Im(Z)/Ohm	|Z|/Ohm	Phase(Z)/deg	time/s	<Ewe>/V	<I>/mA	Cs/uF	Cp/uF	cycle number	I Range	|Ewe|/V	|I|/A	Ns	(Q-Qo)/mA.h	Re(Y)/Ohm-1	Im(Y)/Ohm-1	|Y|/Ohm-1	Phase(Y)/deg	Re(C)/nF	Im(C)/nF	|C|/nF	Phase(C)/deg	Re(M)	Im(M)	|M|	Phase(M)/deg	Re(Permittivity)	Im(Permittivity)	|Permittivity|	Phase(Permittivity)/deg	Re(Resistivity)/Ohm.cm	Im(Resistivity)/Ohm.cm	|Resistivity|/Ohm.cm	Phase(Resistivity)/deg	Re(Conductivity)/mS/cm	Im(Conductivity)/mS/cm	|Conductivity|/mS/cm	Phase(Conductivity)/deg	Tan(Delta)	Loss Angle(Delta)/deg	dq/mA.h
500019	16.4449	-2.005	16.5667	6.95133	202.074	0.450117	0.00935955	-0.158752	-0.00232529	1	10	0.005471	0.000330241	0	1.72519e-05	0.0599184	-0.0073054	0.0603621	-6.95133	-2.32529	19.0719	19.2131	-96.9513	0.0000000E+000	0.0000000E+000	0.0000000E+000	96.9513	0.0000000E+000	0.0000000E+000	0.0000000E+000	-96.9513	0.0000000E+000	0.0000000E+000	0.0000000E+000	6.95133	0.0000000E+000	0.0000000E+000	0.0000000E+000	-6.95133	8.20194	83.0487	1.72519e-05
231063	9.75463	-0.821299	9.78914	4.81271	202.918	0.449812	0.0104516	-0.838666	-0.0059034	1	10	0.0104656	0.0010691	0	1.74931e-05	0.101794	-0.00857062	0.102154	-4.81271	-5.9034	70.1152	70.3633	-94.8127	0.0000000E+000	0.0000000E+000	0.0000000E+000	94.8127	0.0000000E+000	0.0000000E+000	0.0000000E+000	-94.8127	0.0000000E+000	0.0000000E+000	0.0000000E+000	4.81271	0.0000000E+000	0.0000000E+000	0.0000000E+000	-4.81271	11.8771	85.1873	-1.2872e-07
106786	8.81649	-0.186401	8.81846	1.21119	203.899	0.449759	0.01121	-7.9957	-0.00357246	1	10	0.010821	0.00122709	0	2.01194e-05	0.113373	-0.00239697	0.113398	-1.21119	-3.57245	168.972	169.01	-91.2112	0.0000000E+000	0.0000000E+000	0.0000000E+000	91.2112	0.0000000E+000	0.0000000E+000	0.0000000E+000	-91.2112	0.0000000E+000	0.0000000E+000	0.0000000E+000	1.21119	0.0000000E+000	0.0000000E+000	0.0000000E+000	-1.21119	47.2985	88.7888	1.90142e-06
49352.4	8.71927	-0.00514616	8.71927	0.0338163	204.744	0.449758	0.0109808	-626.656	-0.000218291	1	10	0.0105761	0.00121295	0	2.41641e-05	0.114689	-6.76898e-05	0.114689	-0.0338163	-0.218273	369.856	369.856	-90.0338	0.0000000E+000	0.0000000E+000	0.0000000E+000	90.0338	0.0000000E+000	0.0000000E+000	0.0000000E+000	-90.0338	0.0000000E+000	0.0000000E+000	0.0000000E+000	0.0338163	0.0000000E+000	0.0000000E+000	0.0000000E+000	-0.0338163	1694.33	89.9662	1.72243e-06
22806.6	8.71266	0.0837665	8.71306	-0.550844	205.588	0.449747	0.0108392	83.3086	0.00769997	1	10	0.0104661	0.00120119	0	2.31682e-05	0.114765	0.00110339	0.11477	0.550844	7.69994	800.884	800.921	-89.4492	0.0000000E+000	0.0000000E+000	0.0000000E+000	89.4492	0.0000000E+000	0.0000000E+000	0.0000000E+000	-89.4492	0.0000000E+000	0.0000000E+000	0.0000000E+000	-0.550844	0.0000000E+000	0.0000000E+000	0.0000000E+000	0.550844	104.011	89.4492	-1.13943e-07
10540.4	8.73344	0.177166	8.73524	-1.16214	206.432	0.449756	0.0109435	85.2281	0.0350586	1	10	0.0102336	0.00117154	0	2.41277e-05	0.114455	0.00232183	0.114479	1.16214	35.0586	1728.22	1728.58	-88.8379	0.0000000E+000	0.0000000E+000	0.0000000E+000	88.8379	0.0000000E+000	0.0000000E+000	0.0000000E+000	-88.8379	0.0000000E+000	0.0000000E+000	0.0000000E+000	-1.16214	0.0000000E+000	0.0000000E+000	0.0000000E+000	1.16214	49.2952	88.8379	8.1566e-07
4871.56	8.77509	0.361372	8.78253	-2.3582	207.424	0.449763	0.0114615	90.406	0.153062	1	10	0.0108586	0.00123639	0	2.51426e-05	0.113766	0.00468507	0.113862	2.3582	153.062	3716.76	3719.91	-87.6418	0.0000000E+000	0.0000000E+000	0.0000000E+000	87.6418	0.0000000E+000	0.0000000E+000	0.0000000E+000	-87.6418	0.0000000E+000	0.0000000E+000	0.0000000E+000	-2.3582	0.0000000E+000	0.0000000E+000	0.0000000E+000	2.3582	24.2827	87.6418	1.53296e-06
2250.72	8.84488	0.701712	8.87267	-4.53608	208.575	0.449757	0.0118585	100.772	0.630302	1	10	0.0103225	0.0011634	0	2.77718e-05	0.112353	0.00891354	0.112706	4.53608	630.302	7944.78	7969.74	-85.4639	0.0000000E+000	0.0000000E+000	0.0000000E+000	85.4639	0.0000000E+000	0.0000000E+000	0.0000000E+000	-85.4639	0.0000000E+000	0.0000000E+000	0.0000000E+000	-4.53608	0.0000000E+000	0.0000000E+000	0.0000000E+000	4.53608	12.6047	85.4639	5.7397e-07
1040.33	8.9595	1.37411	9.06426	-8.71948	209.505	0.449762	0.0118603	111.333	2.55862	1	10	0.0104374	0.00115149	0	3.09445e-05	0.109048	0.0167247	0.110323	8.71948	2558.62	16682.7	16877.8	-81.2805	0.0000000E+000	0.0000000E+000	0.0000000E+000	81.2805	0.0000000E+000	0.0000000E+000	0.0000000E+000	-81.2805	0.0000000E+000	0.0000000E+000	0.0000000E+000	-8.71948	0.0000000E+000	0.0000000E+000	0.0000000E+000	8.71948	6.5202	81.2805	2.50086e-06
480.769	9.15265	2.71109	9.54573	-16.4998	210.435	0.44976	0.0107795	122.107	9.8494	1	10	0.0104557	0.00109533	0	3.26983e-05	0.100445	0.0297527	0.104759	16.4998	9849.4	33251.5	34679.6	-73.5002	0.0000000E+000	0.0000000E+000	0.0000000E+000	73.5002	0.0000000E+000	0.0000000E+000	0.0000000E+000	-73.5002	0.0000000E+000	0.0000000E+000	0.0000000E+000	-16.4998	0.0000000E+000	0.0000000E+000	0.0000000E+000	16.4998	3.376	73.5002	7.88867e-07
222.061	9.40548	5.44531	10.868	-30.0687	211.359	0.449764	0.0112994	131.621	33.0421	1	10	0.0104453	0.000961099	0	3.53942e-05	0.0796302	0.046102	0.0920129	30.0687	33042.1	57072.4	65947.3	-59.9313	0.0000000E+000	0.0000000E+000	0.0000000E+000	59.9313	0.0000000E+000	0.0000000E+000	0.0000000E+000	-59.9313	0.0000000E+000	0.0000000E+000	0.0000000E+000	-30.0687	0.0000000E+000	0.0000000E+000	0.0000000E+000	30.0687	1.72726	59.9313	1.77105e-06
102.667	9.77807	11.2504	14.9058	-49.0051	212.296	0.449758	0.0114	137.79	78.4958	1	10	0.0104414	0.000700492	0	3.85589e-05	0.0440092	0.0506359	0.067088	49.0051	78495.8	68223	104000	-40.9949	0.0000000E+000	0.0000000E+000	0.0000000E+000	40.9949	0.0000000E+000	0.0000000E+000	0.0000000E+000	-40.9949	0.0000000E+000	0.0000000E+000	0.0000000E+000	-49.0051	0.0000000E+000	0.0000000E+000	0.0000000E+000	49.0051	0.86913	40.9949	1.78959e-06
47.4443	10.4054	23.6098	25.8011	-66.2157	213.451	0.449756	0.00052421	142.083	118.974	1	11	0.0104583	0.000405345	0	4.08646e-05	0.0156309	0.0354664	0.0387581	66.2157	118974	52434.9	130016	-23.7843	0.0000000E+000	0.0000000E+000	0.0000000E+000	23.7843	0.0000000E+000	0.0000000E+000	0.0000000E+000	-23.7843	0.0000000E+000	0.0000000E+000	0.0000000E+000	-66.2157	0.0000000E+000	0.0000000E+000	0.0000000E+000	66.2157	0.440725	23.7843	5.98576e-07
21.9144	11.5584	49.8047	51.1283	-76.9344	214.319	0.449752	0.000248939	145.821	138.368	1	11	0.0104279	0.000203955	0	4.11882e-05	0.00442153	0.0190523	0.0195586	76.9344	138368	32111.7	142046	-13.0656	0.0000000E+000	0.0000000E+000	0.0000000E+000	13.0656	0.0000000E+000	0.0000000E+000	0.0000000E+000	-13.0656	0.0000000E+000	0.0000000E+000	0.0000000E+000	-76.9344	0.0000000E+000	0.0000000E+000	0.0000000E+000	76.9344	0.232073	13.0656	1.38013e-07
10.1329	13.8414	105.525	106.429	-82.5273	215.246	0.449755	0.000360943	148.843	146.326	1	11	0.0104275	9.79762e-05	0	4.04594e-05	0.00122197	0.00931614	0.00939594	82.5273	146326	19193.1	147579	-7.47266	0.0000000E+000	0.0000000E+000	0.0000000E+000	7.47266	0.0000000E+000	0.0000000E+000	0.0000000E+000	-7.47266	0.0000000E+000	0.0000000E+000	0.0000000E+000	-82.5273	0.0000000E+000	0.0000000E+000	0.0000000E+000	82.5273	0.131167	7.47266	-5.61916e-07
4.68375	17.5109	223.712	224.396	-85.5243	216.296	0.449772	0.000146252	151.893	150.968	1	12	0.0104268	4.6466e-05	0	4.043e-05	0.000347758	0.00444282	0.0044564	85.5243	150968	11816.9	151430	-4.47565	0.0000000E+000	0.0000000E+000	0.0000000E+000	4.47565	0.0000000E+000	0.0000000E+000	0.0000000E+000	-4.47565	0.0000000E+000	0.0000000E+000	0.0000000E+000	-85.5243	0.0000000E+000	0.0000000E+000	0.0000000E+000	85.5243	0.0782742	4.47565	3.67495e-08
2.16533	27.5422	474.991	475.789	-86.6814	218.009	0.449771	0.000225475	154.743	154.224	1	12	0.0104204	2.19014e-05	0	4.10253e-05	0.000121666	0.00209825	0.00210177	86.6814	154224	8942.65	154484	-3.31856	0.0000000E+000	0.0000000E+000	0.0000000E+000	3.31856	0.0000000E+000	0.0000000E+000	0.0000000E+000	-3.31856	0.0000000E+000	0.0000000E+000	0.0000000E+000	-86.6814	0.0000000E+000	0.0000000E+000	0.0000000E+000	86.6814	0.0579846	3.31856	8.36461e-09
1.00006	50.2404	1012.81	1014.05	-87.1602	222.349	0.449769	0.000169065	157.132	156.747	1	13	0.0104249	1.02804e-05	0	4.06506e-05	4.88576e-05	0.000984931	0.000986142	87.1602	156747	7775.44	156939	-2.83984	0.0000000E+000	0.0000000E+000	0.0000000E+000	2.83984	0.0000000E+000	0.0000000E+000	0.0000000E+000	-2.83984	0.0000000E+000	0.0000000E+000	0.0000000E+000	-87.1602	0.0000000E+000	0.0000000E+000	0.0000000E+000	87.1602	0.0496051	2.83984	-4.87724e-08