File: ACS_Catal_2026/Figures_Na_K/main_figures/data/EC/20251112_2-148_alpha_reproducibility/20251112_2-148_005_gamma_reproducibility_Na2_02_PEIS_C01.mpt
EC-Lab ASCII FILE
Nb header lines : 63

Potentio Electrochemical Impedance Spectroscopy

Run on channel : 1 (SN 69187)
User :
CE vs. WE compliance from -10 V to 10 V
Electrode connection : standard
Potential control : Ewe
Ewe ctrl range : min = -1.00 V, max = 1.00 V
Safety Limits :
	Do not start on E overload
Acquisition started on : 11/12/2025 20:57:12.203
Loaded Setting File :  C:\Users\User\Documents\EC-Lab\Data\Yatsuzuka\20251030_2-147_gamma_reproducibility\20251030_2-147_001_gamma1_K_1.mps
Saved on :
	File : 20251112_2-148_005_gamma_reproducibility_Na2_02_PEIS_C01.mpr
	Directory : C:\Users\User\Documents\EC-Lab\Data\Yatsuzuka\20251112_2-148_alpha_reproducibility\
	Host : 192.109.209.127
Device : SP-150e (SN .003883)
Address : 192.109.209.128
EC-Lab for windows v11.52 (software)
Internet server v11.52 (firmware)
Command interpretor v11.50 (firmware)
Electrode material :
Initial state :
Electrolyte :
Comments :
Electrode surface area : 0.001 cm2
Characteristic mass : 0.001 g
Equivalent Weight : 0.000 g/eq.
Density : 0.000 g/cm3
Volume (V) : 0.001 cm3
Cycle Definition : Charge/Discharge alternance
Mode                Single sine
E (V)               0.4500
vs.                 Ref
tE (h:m:s)          0:00:0.0000
record              0
dI                  0.000
unit dI             mA
dt (s)              0.000
fi                  500.000
unit fi             kHz
ff                  1.000
unit ff             Hz
Nd                  6
Points              per decade
spacing             Logarithmic
Va (mV)             10.0
pw                  0.10
Na                  2
corr                0
E range min (V)     -1.000
E range max (V)     1.000
I Range             Auto
Bandwidth           5
nc cycles           0
goto Ns'            0
nr cycles           0
inc. cycle          0

freq/Hz	Re(Z)/Ohm	-Im(Z)/Ohm	|Z|/Ohm	Phase(Z)/deg	time/s	<Ewe>/V	<I>/mA	Cs/uF	Cp/uF	cycle number	I Range	|Ewe|/V	|I|/A	Ns	(Q-Qo)/mA.h	Re(Y)/Ohm-1	Im(Y)/Ohm-1	|Y|/Ohm-1	Phase(Y)/deg	Re(C)/nF	Im(C)/nF	|C|/nF	Phase(C)/deg	Re(M)	Im(M)	|M|	Phase(M)/deg	Re(Permittivity)	Im(Permittivity)	|Permittivity|	Phase(Permittivity)/deg	Re(Resistivity)/Ohm.cm	Im(Resistivity)/Ohm.cm	|Resistivity|/Ohm.cm	Phase(Resistivity)/deg	Re(Conductivity)/mS/cm	Im(Conductivity)/mS/cm	|Conductivity|/mS/cm	Phase(Conductivity)/deg	Tan(Delta)	Loss Angle(Delta)/deg	dq/mA.h
500019	22.4023	-1.78261	22.4731	4.54959	202.106	0.450099	0.0101403	-0.178557	-0.00112348	1	10	0.00701354	0.000312086	0	1.24393e-05	0.0443574	-0.00352963	0.0444976	-4.54959	-1.12348	14.1189	14.1635	-94.5496	0.0000000E+000	0.0000000E+000	0.0000000E+000	94.5496	0.0000000E+000	0.0000000E+000	0.0000000E+000	-94.5496	0.0000000E+000	0.0000000E+000	0.0000000E+000	4.54959	0.0000000E+000	0.0000000E+000	0.0000000E+000	-4.54959	12.5671	85.4504	1.24393e-05
231063	14.7943	-0.810076	14.8165	3.13415	202.951	0.449765	0.0111746	-0.850286	-0.00254172	1	10	0.0108492	0.000732242	0	1.32866e-05	0.0673915	-0.00369009	0.0674925	-3.13415	-2.54172	46.419	46.4885	-93.1342	0.0000000E+000	0.0000000E+000	0.0000000E+000	93.1342	0.0000000E+000	0.0000000E+000	0.0000000E+000	-93.1342	0.0000000E+000	0.0000000E+000	0.0000000E+000	3.13415	0.0000000E+000	0.0000000E+000	0.0000000E+000	-3.13415	18.2629	86.8658	-2.0664e-07
106786	13.6848	-0.164418	13.6858	0.688353	203.931	0.449739	0.0110683	-9.06473	-0.00130831	1	10	0.0107594	0.000786168	0	1.69352e-05	0.073063	-0.000877823	0.0730682	-0.688353	-1.30831	108.893	108.901	-90.6884	0.0000000E+000	0.0000000E+000	0.0000000E+000	90.6884	0.0000000E+000	0.0000000E+000	0.0000000E+000	-90.6884	0.0000000E+000	0.0000000E+000	0.0000000E+000	0.688353	0.0000000E+000	0.0000000E+000	0.0000000E+000	-0.688353	83.232	89.3116	2.95371e-06
49352.4	13.5536	0.0403377	13.5537	-0.170521	204.775	0.449739	0.0109025	79.9467	0.000708123	1	10	0.010567	0.000779639	0	1.94816e-05	0.0737803	0.000219582	0.0737807	0.170521	0.708139	237.932	237.933	-89.8295	0.0000000E+000	0.0000000E+000	0.0000000E+000	89.8295	0.0000000E+000	0.0000000E+000	0.0000000E+000	-89.8295	0.0000000E+000	0.0000000E+000	0.0000000E+000	-0.170521	0.0000000E+000	0.0000000E+000	0.0000000E+000	0.170521	336.004	89.8295	1.93774e-06
22806.6	13.5431	0.126757	13.5437	-0.536245	205.619	0.449742	0.0109491	55.054	0.00482234	1	10	0.0104178	0.0007692	0	2.02969e-05	0.0738319	0.000691031	0.0738352	0.536245	4.82236	515.234	515.257	-89.4638	0.0000000E+000	0.0000000E+000	0.0000000E+000	89.4638	0.0000000E+000	0.0000000E+000	0.0000000E+000	-89.4638	0.0000000E+000	0.0000000E+000	0.0000000E+000	-0.536245	0.0000000E+000	0.0000000E+000	0.0000000E+000	0.536245	106.843	89.4638	8.88932e-07
10540.4	13.5951	0.243818	13.5973	-1.02744	206.464	0.449742	0.0113423	61.9296	0.0199124	1	10	0.010253	0.000754045	0	2.29194e-05	0.0735322	0.00131874	0.073544	1.02744	19.9124	1110.3	1110.48	-88.9726	0.0000000E+000	0.0000000E+000	0.0000000E+000	88.9726	0.0000000E+000	0.0000000E+000	0.0000000E+000	-88.9726	0.0000000E+000	0.0000000E+000	0.0000000E+000	-1.02744	0.0000000E+000	0.0000000E+000	0.0000000E+000	1.02744	55.7593	88.9726	1.52265e-06
4871.56	13.6275	0.479232	13.6359	-2.01407	207.455	0.449761	0.0119926	68.172	0.0842033	1	10	0.0105279	0.000772069	0	2.678e-05	0.0732904	0.00257737	0.0733357	2.01407	84.2035	2394.41	2395.89	-87.9859	0.0000000E+000	0.0000000E+000	0.0000000E+000	87.9859	0.0000000E+000	0.0000000E+000	0.0000000E+000	-87.9859	0.0000000E+000	0.0000000E+000	0.0000000E+000	-2.01407	0.0000000E+000	0.0000000E+000	0.0000000E+000	2.01407	28.4361	87.9859	1.79392e-06
2250.72	13.6778	0.947957	13.7106	-3.96462	208.385	0.449752	0.0123038	74.595	0.356595	1	10	0.0108531	0.000791584	0	2.98854e-05	0.0727618	0.00504286	0.0729363	3.96462	356.595	5145.2	5157.54	-86.0354	0.0000000E+000	0.0000000E+000	0.0000000E+000	86.0354	0.0000000E+000	0.0000000E+000	0.0000000E+000	-86.0354	0.0000000E+000	0.0000000E+000	0.0000000E+000	-3.96462	0.0000000E+000	0.0000000E+000	0.0000000E+000	3.96462	14.4287	86.0354	2.07752e-06
1040.33	13.7931	1.92392	13.9266	-7.94065	209.315	0.449758	0.0123429	79.517	1.51755	1	10	0.0109368	0.000785316	0	3.31689e-05	0.0711164	0.00991965	0.0718049	7.94065	1517.55	10879.7	10985.1	-82.0593	0.0000000E+000	0.0000000E+000	0.0000000E+000	82.0593	0.0000000E+000	0.0000000E+000	0.0000000E+000	-82.0593	0.0000000E+000	0.0000000E+000	0.0000000E+000	-7.94065	0.0000000E+000	0.0000000E+000	0.0000000E+000	7.94065	7.16925	82.0593	1.07335e-06
480.769	13.9696	3.93706	14.5138	-15.7394	210.245	0.449761	0.0115286	84.0836	6.18718	1	10	0.0109416	0.000753877	0	3.69272e-05	0.0663165	0.01869	0.0688999	15.7394	6187.18	21953.6	22808.8	-74.2606	0.0000000E+000	0.0000000E+000	0.0000000E+000	74.2606	0.0000000E+000	0.0000000E+000	0.0000000E+000	-74.2606	0.0000000E+000	0.0000000E+000	0.0000000E+000	-15.7394	0.0000000E+000	0.0000000E+000	0.0000000E+000	15.7394	3.54823	74.2606	1.76902e-06
222.061	14.3338	8.11516	16.4716	-29.5166	211.169	0.449752	0.0119199	88.3185	21.4375	1	10	0.0109486	0.000664694	0	3.96242e-05	0.0528311	0.0299106	0.0607105	29.5166	21437.5	37865	43512.3	-60.4834	0.0000000E+000	0.0000000E+000	0.0000000E+000	60.4834	0.0000000E+000	0.0000000E+000	0.0000000E+000	-60.4834	0.0000000E+000	0.0000000E+000	0.0000000E+000	-29.5166	0.0000000E+000	0.0000000E+000	0.0000000E+000	29.5166	1.7663	60.4834	8.30105e-07
102.667	14.9715	16.8645	22.5512	-48.4029	212.364	0.449747	0.000663614	91.921	51.407	1	11	0.0109833	0.000487038	0	4.24085e-05	0.0294392	0.0331616	0.0443436	48.4029	51407	45636.6	68741.4	-41.5971	0.0000000E+000	0.0000000E+000	0.0000000E+000	41.5971	0.0000000E+000	0.0000000E+000	0.0000000E+000	-41.5971	0.0000000E+000	0.0000000E+000	0.0000000E+000	-48.4029	0.0000000E+000	0.0000000E+000	0.0000000E+000	48.4029	0.88775	41.5971	1.11851e-06
47.4443	16.1849	35.2667	38.8032	-65.3482	213.276	0.449743	0.000491777	95.1199	78.5714	1	11	0.0109491	0.00028217	0	4.25402e-05	0.0107492	0.0234223	0.0257711	65.3482	78571.4	36058.8	86450.6	-24.6518	0.0000000E+000	0.0000000E+000	0.0000000E+000	24.6518	0.0000000E+000	0.0000000E+000	0.0000000E+000	-24.6518	0.0000000E+000	0.0000000E+000	0.0000000E+000	-65.3482	0.0000000E+000	0.0000000E+000	0.0000000E+000	65.3482	0.45893	24.6518	1.16553e-08
21.9144	18.6736	73.8415	76.166	-75.8081	214.144	0.449744	0.000205886	98.3534	92.4416	1	11	0.010925	0.000143436	0	4.2297e-05	0.00321888	0.0127285	0.0131292	75.8081	92441.6	23377.3	95351.7	-14.1919	0.0000000E+000	0.0000000E+000	0.0000000E+000	14.1919	0.0000000E+000	0.0000000E+000	0.0000000E+000	-14.1919	0.0000000E+000	0.0000000E+000	0.0000000E+000	-75.8081	0.0000000E+000	0.0000000E+000	0.0000000E+000	75.8081	0.252888	14.1919	-2.0353e-07
10.1329	22.9557	154.397	156.094	-81.5433	215.321	0.44977	0.000104214	101.729	99.5289	1	12	0.0109283	7.00109e-05	0	4.24645e-05	0.000942139	0.00633672	0.00640638	81.5433	99528.9	14797.9	100623	-8.45674	0.0000000E+000	0.0000000E+000	0.0000000E+000	8.45674	0.0000000E+000	0.0000000E+000	0.0000000E+000	-8.45674	0.0000000E+000	0.0000000E+000	0.0000000E+000	-81.5433	0.0000000E+000	0.0000000E+000	0.0000000E+000	81.5433	0.148679	8.45674	-5.69697e-08
4.68375	33.3069	326.674	328.367	-84.1784	216.172	0.449758	0.00029	104.019	102.949	1	12	0.0109197	3.32546e-05	0	4.249e-05	0.000308897	0.00302966	0.00304537	84.1784	102949	10496.4	103482	-5.82162	0.0000000E+000	0.0000000E+000	0.0000000E+000	5.82162	0.0000000E+000	0.0000000E+000	0.0000000E+000	-5.82162	0.0000000E+000	0.0000000E+000	0.0000000E+000	-84.1784	0.0000000E+000	0.0000000E+000	0.0000000E+000	84.1784	0.101958	5.82162	-4.74518e-07
2.16533	51.3941	683.947	685.875	-85.7027	218.397	0.449767	3.61367e-05	107.467	106.863	1	13	0.0109212	1.5923e-05	0	4.29096e-05	0.00010925	0.00145389	0.00145799	85.7027	106863	8030.06	107165	-4.29732	0.0000000E+000	0.0000000E+000	0.0000000E+000	4.29732	0.0000000E+000	0.0000000E+000	0.0000000E+000	-4.29732	0.0000000E+000	0.0000000E+000	0.0000000E+000	-85.7027	0.0000000E+000	0.0000000E+000	0.0000000E+000	85.7027	0.0751433	4.29732	3.98571e-07
1.00006	90.0015	1440.88	1443.69	-86.4258	222.006	0.449761	5.81168e-05	110.45	110.02	1	13	0.0109225	7.56572e-06	0	4.26794e-05	4.31821e-05	0.000691323	0.00069267	86.4258	110020	6872.2	110235	-3.57422	0.0000000E+000	0.0000000E+000	0.0000000E+000	3.57422	0.0000000E+000	0.0000000E+000	0.0000000E+000	-3.57422	0.0000000E+000	0.0000000E+000	0.0000000E+000	-86.4258	0.0000000E+000	0.0000000E+000	0.0000000E+000	86.4258	0.0624629	3.57422	-2.09166e-07