File: ACS_Catal_2026/Figures_Na_K/main_figures/data/EC/20251112_2-148_alpha_reproducibility/20251112_2-148_002_alpha_reproducibility_2_Na1_03_CVA_C02.mpt
EC-Lab ASCII FILE
Nb header lines : 66

Cyclic Voltammetry Advanced

Run on channel : 2 (SN 69290)
User :
CE vs. WE compliance from -10 V to 10 V
Electrode connection : standard
Potential control : Ewe
Ewe ctrl range : min = -1.00 V, max = 1.00 V
Safety Limits :
	Do not start on E overload
Acquisition started on : 11/12/2025 13:57:42.969
Loaded Setting File :  C:\Users\User\Documents\EC-Lab\Data\Yatsuzuka\20251112_2-148_alpha_reproducibility\20251112_2-148_002_alpha_reproducibility_2_K1.mps
Saved on :
	File : 20251112_2-148_002_alpha_reproducibility_2_Na1_03_CVA_C02.mpr
	Directory : C:\Users\User\Documents\EC-Lab\Data\Yatsuzuka\20251112_2-148_alpha_reproducibility\
	Host : 192.109.209.127
Device : SP-150e (SN .003883)
Address : 192.109.209.128
EC-LAB for windows v11.52 (software)
Internet server v11.52 (firmware)
Command interpretor v11.50 (firmware)
Electrode material :
Initial state :
Electrolyte :
Comments :
Electrode surface area : 0.001 cm2
Characteristic mass : 0.001 g
Equivalent Weight : 0.000 g/eq.
Density : 0.000 g/cm3
Volume (V) : 0.001 cm3
Cycle Definition : Charge/Discharge alternance
Ei (V)              0.450
vs.                 Ref
ti (h:m:s)          0:00:10.0000
dti (s)             0.0000
dE/dt               5.000
dE/dt unit          mV/s
E1 (V)              0.700
vs.                 Ref
t1 (h:m:s)          0:00:0.0000
dt1 (s)             0.1000
Step percent        50
N                   10
E range min (V)     -1.000
E range max (V)     1.000
I Range             10 mA
I Range min         Unset
I Range max         Unset
I Range init        Unset
Bandwidth           5
E2 (V)              0.450
vs.                 Ref
t2 (h:m:s)          0:00:0.0000
dt2 (s)             0.1000
nc cycles           14
nr                  1
Reverse Scan        0
Ef (V)              0.000
vs.                 Eoc
tf (h:m:s)          0:00:0.0000
dtf (s)             0.1000

mode	ox/red	error	control changes	Ns changes	counter inc.	time/s	control/V	Ewe/V	<I>/mA	cycle number	(Q-Qo)/C	I Range	Ns	step time/s	Pwe/W	Rwe/Ohm
2	0	0	1	0	0	231.861	0.450021	0.449535	-0.00937325	1	0.0000000E+000	11	0	0.000000000000000E+000	-4.2136e-06	47959.3
2	1	0	1	0	0	245.9	0.520213	0.519748	0.0151861	1	0.000209034	11	0	13.9835	7.89294e-06	34225.3
2	1	0	1	0	0	259.983	0.590628	0.590176	0.0218081	1	0.000447855	11	0	28.0667	1.28706e-05	27062.2
2	1	0	1	0	0	274.066	0.661046	0.660636	0.150536	1	0.00127869	11	0	42.1501	9.94498e-05	4388.55
2	1	0	1	0	0	287.9	0.669785	0.669305	0.173313	1	0.00592746	11	0	55.984	0.000115999	3861.83
2	1	0	1	0	0	301.984	0.599368	0.598921	2.08192e-05	1	0.00662333	11	0	0.2996	1.24691e-08	2.87677e+07
2	0	0	0	0	0	316.067	0.528952	0.528487	-0.0101212	1	0.0065231	11	0	13.484	-5.34894e-06	52215.7
2	0	0	1	0	0	330.15	0.458535	0.458069	-0.0127668	1	0.00636145	11	0	27.5673	-5.84808e-06	35879.7
2	1	0	1	0	1	344.003	0.510773	0.510293	0.0142571	2	0.00650482	11	0	12.1407	7.27529e-06	35792.3
2	1	0	0	0	1	358.086	0.58119	0.580749	0.017526	2	0.00671122	11	0	26.224	1.01782e-05	33136.4
2	1	0	1	0	1	372.17	0.651606	0.651179	0.096587	2	0.00727121	11	0	40.3073	6.28954e-05	6741.88
2	1	0	0	0	1	385.994	0.679274	0.678827	0.244022	2	0.0115096	11	0	54.1312	0.000165648	2781.83
2	1	0	1	0	1	400.077	0.608857	0.608373	0.00423212	2	0.0125344	11	0	68.2146	2.5747e-06	143751
2	1	0	1	0	1	414.16	0.53844	0.537976	-0.00946363	2	0.0124535	11	0	12.0857	-5.09121e-06	56846.7
2	0	0	0	0	1	428.244	0.468024	0.467548	-0.0116384	2	0.0122962	11	0	26.169	-5.44153e-06	40172.7
2	1	0	1	0	0	442.096	0.501284	0.500834	0.0137844	3	0.0123881	11	0	10.1879	6.90371e-06	36333.3
2	1	0	1	0	0	456.18	0.571702	0.571221	0.015768	3	0.0125873	11	0	24.2713	9.007e-06	36226.6
2	1	0	1	0	0	470.263	0.642117	0.641627	0.0661092	3	0.0130069	11	0	38.3545	4.24175e-05	9705.57
2	1	0	1	0	0	484.087	0.688762	0.688286	0.349457	3	0.0167139	11	0	52.1785	0.000240526	1969.59
2	1	0	0	0	0	498.17	0.618346	0.617951	0.00927531	3	0.0182286	11	0	66.2618	5.73169e-06	66623.2
2	1	0	1	0	0	512.253	0.547929	0.547439	-0.0088148	3	0.0181751	11	0	10.2878	-4.82557e-06	62104.5
2	0	0	1	0	0	526.337	0.477513	0.477036	-0.011883	3	0.0180228	11	0	24.3711	-5.66863e-06	40144.3
2	1	0	0	0	1	540.19	0.491796	0.491332	0.0134554	4	0.0180655	11	0	8.3452	6.61109e-06	36515.5
2	1	0	1	0	1	554.273	0.562212	0.561709	0.0146865	4	0.0182603	11	0	22.4285	8.24953e-06	38246.6
2	1	0	1	0	1	568.356	0.632629	0.63217	0.0470019	4	0.0185936	11	0	36.5118	2.97132e-05	13449.9
2	1	0	1	0	1	582.18	0.698252	0.697805	0.496163	4	0.0215183	11	0	50.3357	0.000346225	1406.4
2	1	0	1	0	1	596.263	0.627834	0.627385	0.0179158	4	0.0237448	11	0	64.4191	1.12401e-05	35018.6
2	0	0	0	0	1	610.347	0.557418	0.55696	-0.00829003	4	0.0237307	11	0	8.49	-4.61722e-06	67184.4
2	0	0	1	0	1	624.43	0.487001	0.486572	-0.0112341	4	0.0235841	11	0	22.5733	-5.4662e-06	43312
2	1	0	1	0	0	638.283	0.482307	0.481836	0.0135404	5	0.0235791	11	0	6.4474	6.52426e-06	35585
2	1	0	1	0	0	652.366	0.552723	0.552255	0.0141609	5	0.0237723	11	0	20.5307	7.82042e-06	38998.7
2	1	0	0	0	0	666.449	0.62314	0.622648	0.0346136	5	0.0240519	11	0	34.614	2.15521e-05	17988.6
2	1	0	1	0	0	680.533	0.693557	0.69308	0.431748	5	0.0262001	11	0	48.6974	0.000299236	1605.29
2	1	0	1	0	0	694.357	0.637323	0.636881	0.0309645	5	0.0291369	11	0	62.5213	1.97207e-05	20568.1
2	1	0	1	0	0	708.44	0.566907	0.56648	-0.00749812	5	0.0291803	11	0	6.6921	-4.24753e-06	75549.6
2	0	0	1	0	0	722.523	0.49649	0.495996	-0.0110981	5	0.0290398	11	0	20.7754	-5.5046e-06	44692.1
2	1	0	1	0	1	736.376	0.472818	0.472348	0.0130937	6	0.0289872	11	0	4.5497	6.18479e-06	36074.4
2	1	0	1	0	1	750.459	0.543235	0.542731	0.0136797	6	0.0291784	11	0	18.633	7.42441e-06	39674.1
2	1	0	1	0	1	764.543	0.613651	0.61323	0.0271784	6	0.0294232	11	0	32.7163	1.66666e-05	22563.2
2	1	0	0	0	1	778.626	0.684068	0.68367	0.299985	6	0.0309073	11	0	46.7996	0.000205091	2279.01
2	1	0	1	0	1	792.45	0.646813	0.646391	0.0498363	6	0.0344119	11	0	60.6235	3.22138e-05	12970.3
2	1	0	1	0	1	806.533	0.576395	0.575951	-0.00662898	6	0.0345399	11	0	5.094	-3.81797e-06	86883.8
2	0	0	1	0	1	820.617	0.505979	0.505516	-0.0109529	6	0.0344069	11	0	19.1773	-5.53689e-06	46153.5
2	1	0	1	0	0	834.469	0.463329	0.462845	0.0136374	7	0.0343081	11	0	2.5969	6.31198e-06	33939.4
2	1	0	0	0	0	848.553	0.533746	0.533264	0.014074	7	0.0344986	11	0	16.6802	7.50515e-06	37890
2	1	0	1	0	0	862.636	0.604162	0.603734	0.0217668	7	0.0347214	11	0	30.7635	1.31413e-05	27736.5
2	1	0	1	0	0	876.719	0.67458	0.674093	0.204837	7	0.0357568	11	0	44.8469	0.000138079	3290.87
2	1	0	1	0	0	890.543	0.656301	0.655881	0.0770319	7	0.0395522	11	0	58.6708	5.05238e-05	8514.41
2	1	0	1	0	0	904.626	0.585884	0.585426	-0.00534168	7	0.0398031	11	0	3.0963	-3.12716e-06	109596
2	1	0	0	0	0	918.71	0.515468	0.515002	-0.0103587	7	0.0396791	11	0	17.1796	-5.33474e-06	49717
2	1	0	1	0	1	932.563	0.453841	0.4534	0.0121371	8	0.0395354	11	0	0.7542	5.50296e-06	37356.4
2	1	0	1	0	1	946.646	0.524258	0.523843	0.0135022	8	0.0397244	11	0	14.8375	7.07301e-06	38797
2	1	0	0	0	1	960.729	0.594674	0.594241	0.0184652	8	0.0399325	11	0	28.9208	1.09728e-05	32181.6
2	1	0	1	0	1	974.812	0.665091	0.664637	0.139129	8	0.0406695	11	0	43.0041	9.24704e-05	4777.12
2	1	0	1	0	1	988.636	0.665789	0.665276	0.117393	8	0.0445548	11	0	56.8281	7.80988e-05	5667.08
2	1	0	1	0	1	1002.72	0.595373	0.594934	-0.00280254	8	0.04498	11	0	1.4983	-1.66732e-06	212284
2	0	0	1	0	1	1016.8	0.524956	0.524507	-0.0103107	8	0.0448665	11	0	15.5816	-5.40805e-06	50870.1
2	0	0	0	0	1	1030.89	0.45454	0.454067	-0.0129034	8	0.0447052	11	0	29.6649	-5.85902e-06	35189.7
2	1	0	1	0	0	1044.74	0.514768	0.514328	0.0135791	9	0.0448653	11	0	12.8847	6.98412e-06	37876.3
2	1	0	1	0	0	1058.82	0.585186	0.58471	0.0162597	9	0.0450648	11	0	26.9681	9.50719e-06	35960.8
2	1	0	1	0	0	1072.91	0.655601	0.655149	0.095252	9	0.0456068	11	0	41.0513	6.24042e-05	6878.05
2	1	0	1	0	0	1086.73	0.675278	0.674851	0.176563	9	0.0493914	11	0	54.8753	0.000119154	3822.15
2	0	0	0	0	0	1100.81	0.604862	0.604365	-0.000168542	9	0.0500926	11	0	0.000000000000000E+000	-1.01861e-07	3.58585e+06
2	0	0	1	0	0	1114.9	0.534445	0.534038	-0.00986609	9	0.049996	11	0	13.5839	-5.26886e-06	54128.6
2	0	0	1	0	0	1128.98	0.464029	0.463619	-0.0121585	9	0.0498398	11	0	27.6672	-5.63693e-06	38131.2
2	1	0	0	0	1	1142.83	0.50528	0.504816	0.0135065	10	0.0499516	11	0	10.987	6.8183e-06	37375.8
2	1	0	1	0	1	1156.92	0.575696	0.575262	0.0150063	10	0.0501462	11	0	25.0703	8.63253e-06	38334.7
2	1	0	1	0	1	1171	0.646113	0.645672	0.0667109	10	0.0505616	11	0	39.1536	4.30734e-05	9678.66
2	1	0	1	0	1	1184.82	0.684768	0.684325	0.262373	10	0.0540416	11	0	52.9775	0.000179548	2608.22
2	1	0	1	0	1	1198.91	0.61435	0.613861	0.00384685	10	0.0551342	11	0	67.0609	2.36143e-06	159575
2	0	0	0	0	1	1212.99	0.543934	0.543473	-0.00919407	10	0.0550599	11	0	11.9858	-4.99673e-06	59111.2
2	0	0	1	0	1	1227.07	0.473517	0.473042	-0.0116674	10	0.0549087	11	0	26.0691	-5.51919e-06	40543.7
2	1	0	1	0	0	1240.93	0.495791	0.495314	0.013319	11	0.054972	11	0	9.0892	6.59709e-06	37188.5
2	1	0	1	0	0	1255.01	0.566207	0.565742	0.0137719	11	0.0551637	11	0	23.1725	7.79132e-06	41079.5
2	1	0	1	0	0	1269.09	0.636625	0.636158	0.0477915	11	0.0554968	11	0	37.2559	3.04029e-05	13311.1
2	1	0	0	0	0	1282.92	0.694256	0.693776	0.384815	11	0.0584363	11	0	51.0798	0.000266976	1802.88
2	1	0	1	0	0	1297	0.623839	0.623397	0.0104137	11	0.0601055	11	0	65.1631	6.49184e-06	59863.4
2	0	0	1	0	0	1311.08	0.553423	0.552949	-0.00872042	11	0.0600598	11	0	10.088	-4.82194e-06	63408.6
2	1	0	1	0	0	1325.17	0.483006	0.482573	-0.0111099	11	0.0599126	11	0	24.1713	-5.36132e-06	43436.4
2	0	0	1	0	1	1339.02	0.486303	0.485821	0.013118	12	0.0599273	11	0	7.1915	6.37301e-06	37034.6
2	1	0	1	0	1	1353.1	0.556719	0.556244	0.0132979	12	0.0601166	11	0	21.2748	7.39688e-06	41829.5
2	1	0	1	0	1	1367.19	0.627135	0.626675	0.0354724	12	0.0603959	11	0	35.3581	2.22297e-05	17666.5
2	1	0	0	0	1	1381.27	0.697552	0.697088	0.456568	12	0.0626643	11	0	49.4414	0.000318268	1526.8
2	1	0	0	0	1	1395.09	0.633328	0.632871	0.0208802	12	0.0650227	11	0	63.2654	1.32145e-05	30309.6
2	1	0	1	0	1	1409.18	0.562911	0.562463	-0.00806764	12	0.065022	11	0	8.1903	-4.53775e-06	69718.3
2	1	0	1	0	1	1423.26	0.492495	0.491997	-0.0108348	12	0.0648803	11	0	22.2736	-5.33067e-06	45409.1
2	1	0	1	0	0	1437.11	0.476813	0.476343	0.0133711	13	0.0648481	11	0	5.2937	6.36924e-06	35624.8
2	1	0	0	0	0	1451.2	0.54723	0.546783	0.0134652	13	0.0650364	11	0	19.377	7.36256e-06	40607
2	1	0	1	0	0	1465.28	0.617647	0.617176	0.0273044	13	0.0652801	11	0	33.4604	1.68517e-05	22603.5
2	1	0	1	0	0	1479.36	0.688064	0.687582	0.322082	13	0.0668586	11	0	47.5437	0.000221458	2134.8
2	1	0	1	0	0	1493.19	0.642817	0.642396	0.035495	13	0.0698796	11	0	61.3676	2.28019e-05	18098.2
2	0	0	1	0	0	1507.27	0.5724	0.571913	-0.00774854	13	0.0699439	11	0	6.1926	-4.43149e-06	73809.2
2	1	0	0	0	0	1521.35	0.501984	0.50154	-0.0103987	13	0.0698082	11	0	20.2759	-5.21537e-06	48231
2	1	0	1	0	1	1535.21	0.467325	0.46689	0.0129015	14	0.0697301	11	0	3.396	6.02358e-06	36188.8
2	1	0	1	0	1	1549.29	0.537742	0.537267	0.0132096	14	0.0699179	11	0	17.4793	7.09709e-06	40672.3
2	1	0	0	0	1	1563.37	0.608158	0.607713	0.0220318	14	0.0701405	11	0	31.5626	1.3389e-05	27583.4
2	1	0	1	0	1	1577.46	0.678574	0.678165	0.221494	14	0.0712414	11	0	45.6459	0.00015021	3061.78
2	1	0	1	0	1	1591.28	0.652305	0.651883	0.0568079	14	0.0746443	11	0	59.4699	3.70321e-05	11475.2
2	0	0	1	0	1	1605.36	0.581889	0.581453	-0.00663248	14	0.0748036	11	0	4.3948	-3.85648e-06	87667.5
2	0	0	1	0	1	1619.45	0.511472	0.511007	-0.0109495	14	0.0746752	11	0	18.4781	-5.59527e-06	46669.4
2	1	0	0	0	0	1633.3	0.457836	0.457378	0.0132833	15	0.0745523	11	0	1.4982	6.0755e-06	34432.5
2	1	0	1	0	0	1647.38	0.528252	0.5278	0.0132446	15	0.0747404	11	0	15.5815	6.99051e-06	39850.1
2	1	0	1	0	0	1661.47	0.59867	0.598183	0.0187671	15	0.0749484	11	0	29.6649	1.12261e-05	31874
2	1	0	1	0	0	1675.55	0.669085	0.66867	0.15117	15	0.0757318	11	0	43.7481	0.000101083	4423.31
2	1	0	1	0	0	1689.37	0.661794	0.661318	0.0899248	15	0.0793433	11	0	57.5721	5.94689e-05	7354.12
2	0	0	0	0	0	1703.46	0.591378	0.590952	-0.00462564	15	0.0796498	11	0	2.3971	-2.73353e-06	127756
2	0	0	1	0	0	1717.54	0.520961	0.520473	-0.0107241	15	0.0795318	11	0	16.4804	-5.58159e-06	48533.1
2	0	0	1	0	0	1731.62	0.450545	0.450087	-0.0120295	15	0.0793724	11	0	30.5637	-5.4143e-06	37415.3
2	0	0	0	0	0	1731.73	0.450021	0.44963	-0.0106906	15	0.0793709	11	0	30.6677	-4.80682e-06	42058.4