File: ACS_Catal_2026/Figures_Na_K/main_figures/data/EC/20251112_2-148_alpha_reproducibility/20251112_2-148_002_alpha_reproducibility_2_K1_01_CVA_C02.mpt
EC-Lab ASCII FILE
Nb header lines : 66

Cyclic Voltammetry Advanced

Run on channel : 2 (SN 69290)
User :
CE vs. WE compliance from -10 V to 10 V
Electrode connection : standard
Potential control : Ewe
Ewe ctrl range : min = -1.00 V, max = 1.00 V
Safety Limits :
	Do not start on E overload
Acquisition started on : 11/12/2025 13:25:42.107
Loaded Setting File :  C:\Users\User\Documents\EC-Lab\Data\Yatsuzuka\20251112_2-148_alpha_reproducibility\20251112_2-148_002_alpha_reproducibility_2_K1.mps
Saved on :
	File : 20251112_2-148_002_alpha_reproducibility_2_K1_01_CVA_C02.mpr
	Directory : C:\Users\User\Documents\EC-Lab\Data\Yatsuzuka\20251112_2-148_alpha_reproducibility\
	Host : 192.109.209.127
Device : SP-150e (SN .003883)
Address : 192.109.209.128
EC-LAB for windows v11.52 (software)
Internet server v11.52 (firmware)
Command interpretor v11.50 (firmware)
Electrode material :
Initial state :
Electrolyte :
Comments :
Electrode surface area : 0.001 cm2
Characteristic mass : 0.001 g
Equivalent Weight : 0.000 g/eq.
Density : 0.000 g/cm3
Volume (V) : 0.001 cm3
Cycle Definition : Charge/Discharge alternance
Ei (V)              0.350
vs.                 Ref
ti (h:m:s)          0:00:10.0000
dti (s)             0.0000
dE/dt               10.000
dE/dt unit          mV/s
E1 (V)              0.450
vs.                 Ref
t1 (h:m:s)          0:00:0.0000
dt1 (s)             0.1000
Step percent        50
N                   10
E range min (V)     -1.000
E range max (V)     1.000
I Range             Auto
I Range min         Unset
I Range max         Unset
I Range init        Unset
Bandwidth           5
E2 (V)              0.350
vs.                 Ref
t2 (h:m:s)          0:00:0.0000
dt2 (s)             0.1000
nc cycles           9
nr                  1
Reverse Scan        0
Ef (V)              0.000
vs.                 Eoc
tf (h:m:s)          0:00:0.0000
dtf (s)             0.1000

mode	ox/red	error	control changes	Ns changes	counter inc.	time/s	control/V	Ewe/V	<I>/mA	cycle number	(Q-Qo)/C	I Range	Ns	step time/s	Pwe/W	Rwe/Ohm
2	0	0	0	0	0	0.000000000000000E+000	0.349989	0.349724	-0.0169996	1	0.0000000E+000	13	0	0.000000000000000E+000	-5.94518e-06	20572.5
2	1	0	1	0	0	1.8554	0.368542	0.368084	0.0367571	1	8.09323e-05	12	0	1.8279	1.35297e-05	10013.9
2	1	0	1	0	0	3.7032	0.38702	0.38658	0.0334616	1	0.00016025	12	0	3.6757	1.29356e-05	11552.9
2	1	0	1	0	0	5.6109	0.406098	0.405658	0.0437536	1	0.000239288	12	0	5.5834	1.7749e-05	9271.41
2	1	0	1	0	0	7.5636	0.425624	0.425208	0.0442243	1	0.000314994	13	0	7.5361	1.88045e-05	9614.82
2	1	0	1	0	0	9.5763	0.44575	0.44521	0.0368572	1	0.000391019	13	0	9.5488	1.64092e-05	12079.3
2	0	0	1	0	0	11.4947	0.435063	0.434546	-0.0304402	1	0.000374382	13	0	1.3884	-1.32277e-05	14275.4
2	0	0	1	0	0	13.4024	0.415986	0.415498	-0.041245	1	0.000318962	13	0	3.2961	-1.71372e-05	10073.9
2	0	0	1	0	0	15.4001	0.396009	0.395545	-0.0432191	1	0.000253415	12	0	5.2938	-1.70951e-05	9152.08
2	0	0	1	0	0	17.2479	0.377531	0.377063	-0.0479233	1	0.000185357	12	0	7.1416	-1.80701e-05	7868.06
2	0	0	1	0	0	19.2155	0.357855	0.357341	-0.0376425	1	0.000104117	12	0	9.1092	-1.34512e-05	9493.03
2	1	0	1	0	1	20.9301	0.359303	0.358848	0.0388432	2	0.00010449	12	0	0.849	1.39388e-05	9238.38
2	1	0	1	0	1	22.7779	0.377781	0.377304	0.039522	2	0.000179529	12	0	2.6968	1.49118e-05	9546.67
2	1	0	1	0	1	24.7006	0.397008	0.396621	0.0357106	2	0.000254103	12	0	4.6195	1.41636e-05	11106.5
2	1	0	1	0	1	26.5934	0.415936	0.41545	0.0386123	2	0.000323332	12	0	6.5123	1.60415e-05	10759.5
2	1	0	1	0	1	28.5011	0.435013	0.434576	0.0275675	2	0.000390001	12	0	8.42	1.19802e-05	15764.1
2	0	0	1	0	1	30.3247	0.446749	0.446284	-0.0218436	2	0.000435997	12	0	0.2498	-9.74843e-06	20430.9
2	0	0	1	0	1	32.3523	0.426473	0.426009	-0.0353722	2	0.00037949	12	0	2.2774	-1.50689e-05	12043.6
2	0	0	1	0	1	34.3199	0.406797	0.406358	-0.025397	2	0.000316496	12	0	4.245	-1.03203e-05	16000.2
2	0	0	1	0	1	36.2876	0.38712	0.386696	-0.0372759	2	0.000245564	12	0	6.2127	-1.44144e-05	10373.9
2	0	0	1	0	1	38.1354	0.368642	0.368219	-0.0453522	2	0.0001742	12	0	8.0605	-1.66996e-05	8119.1
2	0	0	1	0	1	39.9783	0.350214	0.349754	-0.0359417	2	9.61822e-05	12	0	9.9034	-1.25707e-05	9731.16
2	1	0	1	0	0	41.7277	0.367293	0.366825	0.0463039	3	0.000161346	12	0	1.648	1.69854e-05	7922.1
2	1	0	1	0	0	43.6355	0.386371	0.385888	0.0292506	3	0.000235892	12	0	3.5558	1.12874e-05	13192.5
2	1	0	1	0	0	45.4983	0.404999	0.404543	0.0404946	3	0.000305704	12	0	5.4186	1.63818e-05	9990.05
2	1	0	1	0	0	47.4509	0.424526	0.424021	0.0399828	3	0.000377275	12	0	7.3712	1.69536e-05	10605.1
2	1	0	1	0	0	49.4486	0.444502	0.444028	0.0419477	3	0.00044478	13	0	9.3689	1.8626e-05	10585.3
2	0	0	1	0	0	51.3371	0.436611	0.43614	-0.0304363	3	0.000431942	13	0	1.2286	-1.32745e-05	14329.6
2	0	0	1	0	0	53.4246	0.415736	0.415213	-0.0228503	3	0.000372801	13	0	3.3161	-9.48773e-06	18171
2	0	0	1	0	0	55.3623	0.396359	0.395938	-0.0425779	3	0.000307562	12	0	5.2538	-1.68582e-05	9299.13
2	0	0	1	0	0	57.2101	0.377881	0.377434	-0.0470155	3	0.00023952	12	0	7.1016	-1.77453e-05	8027.88
2	0	0	1	0	0	59.0579	0.359403	0.358905	-0.0341749	3	0.000164777	12	0	8.9494	-1.22655e-05	10502
2	1	0	1	0	1	60.8374	0.358404	0.357922	0.0458452	4	0.000153167	12	0	0.7591	1.6409e-05	7807.17
2	1	0	1	0	1	62.6852	0.376882	0.376432	0.0304106	4	0.000226552	12	0	2.6069	1.14475e-05	12378.3
2	1	0	1	0	1	64.548	0.39551	0.395003	0.0428746	4	0.000297564	12	0	4.4697	1.69356e-05	9212.99
2	1	0	1	0	1	66.5007	0.415037	0.414535	0.0282315	4	0.000368202	12	0	6.4224	1.17029e-05	14683.4
2	1	0	1	0	1	68.5283	0.435313	0.434835	0.0267984	4	0.000436353	12	0	8.45	1.16529e-05	16226.1
2	0	0	1	0	1	70.3519	0.44645	0.445974	-0.0153792	4	0.000477887	12	0	0.3297	-6.85872e-06	28998.6
2	0	0	1	0	1	72.2595	0.427372	0.426927	-0.0284264	4	0.0004264	12	0	2.2373	-1.2136e-05	15018.7
2	0	0	1	0	1	74.1523	0.408445	0.407993	-0.0292126	4	0.000367656	13	0	4.1301	-1.19185e-05	13966.3
2	0	0	1	0	1	76.1949	0.388019	0.387549	-0.0340139	4	0.000294615	12	0	6.1727	-1.31821e-05	11393.8
2	0	0	1	0	1	78.0427	0.369541	0.369087	-0.0449997	4	0.000223794	12	0	8.0205	-1.66088e-05	8202
2	0	0	1	0	1	79.8905	0.351063	0.350598	-0.0379772	4	0.000146094	12	0	9.8683	-1.33147e-05	9231.78
2	1	0	1	0	0	81.6251	0.366295	0.365831	0.0304363	5	0.000202757	12	0	1.5982	1.11346e-05	12019.6
2	1	0	1	0	0	83.4729	0.384773	0.384366	0.0289823	5	0.000274843	12	0	3.446	1.11398e-05	13262.1
2	1	0	1	0	0	85.3207	0.403251	0.402805	0.036426	5	0.000343349	12	0	5.2938	1.46726e-05	11058.2
2	1	0	1	0	0	87.2584	0.422628	0.422207	0.0333465	5	0.000411356	13	0	7.2315	1.40791e-05	12661.2
2	1	0	1	0	0	89.2111	0.442155	0.441727	0.0348375	5	0.000476512	12	0	9.1842	1.53887e-05	12679.7
2	0	0	1	0	0	91.1895	0.43806	0.437599	-0.0211156	5	0.000474589	12	0	1.0888	-9.24016e-06	20723.9
2	0	0	1	0	0	93.0972	0.418981	0.418501	-0.0291635	5	0.000418303	12	0	2.9965	-1.2205e-05	14350.2
2	0	0	1	0	0	95.1248	0.398705	0.398283	-0.0261034	5	0.000350254	12	0	5.0241	-1.03965e-05	15257.9
2	0	0	1	0	0	97.0325	0.379629	0.379139	-0.0326901	5	0.00028109	12	0	6.9318	-1.23941e-05	11598
2	0	0	1	0	0	98.8803	0.361151	0.360685	-0.0511721	5	0.000207444	12	0	8.7796	-1.8457e-05	7048.47
2	1	0	1	0	1	100.625	0.356307	0.355835	0.0291525	6	0.000181257	12	0	0.5994	1.03735e-05	12206
2	1	0	1	0	1	102.473	0.374785	0.374325	0.0438701	6	0.000253971	12	0	2.4472	1.64217e-05	8532.58
2	1	0	1	0	1	104.32	0.393263	0.392855	0.0285322	6	0.000324203	12	0	4.295	1.1209e-05	13768.8
2	1	0	1	0	1	106.228	0.41234	0.411868	0.0294364	6	0.000391981	12	0	6.2027	1.21239e-05	13991.8
2	1	0	1	0	1	108.316	0.433215	0.432734	0.0381887	6	0.000465369	12	0	8.2902	1.65256e-05	11331.5
2	0	0	1	0	1	110.234	0.447598	0.447078	-0.0233379	6	0.000516624	12	0	0.1649	-1.04339e-05	19156.7
2	0	0	1	0	1	112.277	0.427173	0.426677	-0.0343358	6	0.000458912	13	0	2.2074	-1.46503e-05	12426.6
2	0	0	1	0	1	114.154	0.408395	0.407898	-0.0304404	6	0.000399984	12	0	4.0852	-1.24166e-05	13399.9
2	0	0	1	0	1	116.062	0.389317	0.388874	-0.0352692	6	0.000335202	12	0	5.993	-1.37153e-05	11025.9
2	0	0	1	0	1	117.97	0.37024	0.369751	-0.0348513	6	0.000262067	12	0	7.9007	-1.28863e-05	10609.4
2	0	0	1	0	1	119.818	0.351762	0.351302	-0.0446409	6	0.000184957	12	0	9.7485	-1.56824e-05	7869.5
2	1	0	1	0	0	121.572	0.365795	0.365334	0.0476444	7	0.000236275	12	0	1.5482	1.74061e-05	7667.94
2	1	0	1	0	0	123.48	0.384873	0.384424	0.0466728	7	0.000308791	12	0	3.456	1.79421e-05	8236.57
2	1	0	1	0	0	125.388	0.40395	0.40353	0.0450446	7	0.00037924	12	0	5.3637	1.81768e-05	8958.45
2	1	0	1	0	0	127.355	0.423627	0.423145	0.0416008	7	0.000445882	12	0	7.3314	1.76032e-05	10171.6
2	1	0	1	0	0	129.353	0.443603	0.443201	0.0406691	7	0.000510299	13	0	9.329	1.80246e-05	10897.7
2	0	0	1	0	0	131.237	0.43756	0.437043	-0.0303369	7	0.000499478	13	0	1.2036	-1.32586e-05	14406.3
2	0	0	1	0	0	133.219	0.417734	0.417272	-0.0207424	7	0.000443116	13	0	3.1862	-8.65523e-06	20116.8
2	0	0	1	0	0	135.202	0.397907	0.397416	-0.0315689	7	0.00037757	12	0	5.1689	-1.2546e-05	12588.8
2	0	0	1	0	0	137.05	0.379429	0.378964	-0.0297472	7	0.000310572	12	0	7.0167	-1.12731e-05	12739.5
2	0	0	1	0	0	139.017	0.359752	0.359274	-0.0403826	7	0.000231087	12	0	8.9843	-1.45084e-05	8896.77
2	1	0	1	0	1	140.772	0.357805	0.357341	0.0321667	8	0.000216622	12	0	0.7492	1.14945e-05	11109
2	1	0	1	0	1	142.62	0.376283	0.375797	0.0408056	8	0.000288935	12	0	2.597	1.53346e-05	9209.44
2	1	0	1	0	1	144.527	0.39536	0.394877	0.0322735	8	0.000360103	12	0	4.5047	1.27441e-05	12235.4
2	1	0	1	0	1	146.525	0.415337	0.414865	0.0287317	8	0.000430112	13	0	6.5024	1.19198e-05	14439.3
2	1	0	1	0	1	148.523	0.435313	0.43482	0.0379158	8	0.000497354	12	0	8.5	1.64865e-05	11468
2	0	0	1	0	1	150.376	0.44615	0.445664	-0.0195565	8	0.000537228	13	0	0.3446	-8.71562e-06	22788.6
2	0	0	1	0	1	152.284	0.427073	0.426637	-0.0349081	8	0.000486004	13	0	2.2523	-1.48931e-05	12221.7
2	0	0	1	0	1	154.192	0.407995	0.407487	-0.0245829	8	0.000426075	13	0	4.1601	-1.00172e-05	16576
2	0	0	1	0	1	156.189	0.388019	0.387566	-0.0320709	8	0.000355134	12	0	6.1577	-1.24296e-05	12084.7
2	0	0	1	0	1	158.037	0.369541	0.369079	-0.0464374	8	0.000284939	12	0	8.0055	-1.71391e-05	7947.88
2	0	0	1	0	1	159.945	0.350463	0.350014	-0.0526682	8	0.000204262	12	0	9.9133	-1.84346e-05	6645.63
2	1	0	1	0	0	161.669	0.366794	0.366352	0.0453555	9	0.000264879	12	0	1.5981	1.66161e-05	8077.35
2	1	0	1	0	0	163.577	0.385871	0.385364	0.0420547	9	0.000336763	12	0	3.5058	1.62064e-05	9163.39
2	1	0	1	0	0	165.5	0.405099	0.40468	0.0342298	9	0.000406621	12	0	5.4286	1.38521e-05	11822.5
2	1	0	1	0	0	167.452	0.424625	0.424124	0.0253618	9	0.000472718	12	0	7.3812	1.07565e-05	16722.9
2	1	0	1	0	0	169.48	0.444902	0.444425	0.0384894	9	0.000540607	12	0	9.4088	1.71057e-05	11546.7
2	0	0	1	0	0	171.413	0.435762	0.435295	-0.0356596	9	0.000519828	12	0	1.3833	-1.55224e-05	12206.9
2	0	0	1	0	0	173.501	0.414887	0.41442	-0.0229683	9	0.000458184	12	0	3.4709	-9.51854e-06	18043.1
2	0	0	1	0	0	175.474	0.39516	0.394647	-0.0260442	9	0.000392675	12	0	5.4435	-1.02783e-05	15153
2	0	0	1	0	0	177.441	0.375485	0.375044	-0.0482365	9	0.000319441	12	0	7.4112	-1.80908e-05	7775.1
2	0	0	1	0	0	179.409	0.355807	0.355394	-0.0355785	9	0.000237886	12	0	9.3789	-1.26444e-05	9989.03
2	1	0	1	0	1	181.119	0.361301	0.360846	0.0360242	10	0.000253732	12	0	1.0988	1.29992e-05	10016.8
2	1	0	1	0	1	183.026	0.380378	0.379892	0.0341039	10	0.000327498	12	0	3.0065	1.29558e-05	11139.3
2	1	0	1	0	1	185.084	0.400954	0.400495	0.0447152	10	0.000402392	13	0	5.064	1.79082e-05	8956.58
2	1	0	1	0	1	187.022	0.420331	0.419877	0.0412616	10	0.000468703	12	0	7.0018	1.73248e-05	10176
2	1	0	1	0	1	188.989	0.440007	0.439501	0.0249421	10	0.000533821	12	0	8.9694	1.09621e-05	17620.8
2	0	0	1	0	1	190.938	0.440507	0.44003	-0.0248266	10	0.000545231	13	0	0.9089	-1.09245e-05	17724.1
2	0	0	1	0	1	192.845	0.421429	0.420921	-0.0388869	10	0.000491621	13	0	2.8167	-1.63683e-05	10824.2
2	0	0	1	0	1	194.783	0.402051	0.401655	-0.0426897	10	0.000430012	12	0	4.7544	-1.71465e-05	9408.71
2	0	0	1	0	1	196.751	0.382376	0.381942	-0.0292949	10	0.00035937	12	0	6.7221	-1.11889e-05	13037.8
2	0	0	1	0	1	198.659	0.363297	0.362878	-0.0358442	10	0.000284142	12	0	8.6298	-1.30071e-05	10123.7
2	0	0	1	0	1	199.986	0.349989	0.349419	-0.0364175	10	0.000228174	12	0	9.9572	-1.2725e-05	9594.81