File: ACS_Catal_2026/Figures_Na_K/main_figures/data/EC/20240116_2-97_wait_CV/20240111_2-97_wait15min_CV_1_02_PEIS_C02.mpt
EC-Lab ASCII FILE
Nb header lines : 66

Potentio Electrochemical Impedance Spectroscopy

Run on channel : 2 (SN 66414)
User :
CE vs. WE compliance from -10 V to 10 V
Electrode connection : standard
Potential control : Ewe
Ewe ctrl range : min = -1.00 V, max = 1.00 V
Safety Limits :
	Do not start on E overload
Acquisition started on : 01/16/2024 20:18:24.614
Loaded Setting File :  C:\Users\NakamuraT\Documents\EC-Lab\Data\Yatsuzuka\20240115_2-95_CA_CV\20240115_2-95_001_CA_CV.mps
Saved on :
	File : 20240111_2-97_wait15min_CV_1_02_PEIS_C02.mpr
	Directory : C:\Users\NakamuraT\Documents\EC-Lab\Data\Yatsuzuka\20240116_2-97_wait_CV\
	Host : 192.109.209.100
Device : SP-150e (SN .003411)
Address : 192.109.209.236
EC-Lab for windows v11.50 (software)
Internet server v11.50 (firmware)
Command interpretor v11.50 (firmware)
Electrode material :
Initial state :
Electrolyte :
Comments :
Electrode surface area : 0.000 cm2
Characteristic mass : 0.001 g
Equivalent Weight : 0.000 g/eq.
Density : 0.000 g/cm3
Volume (V) : 0.001 cm3
Cycle Definition : Charge/Discharge alternance
Mode                Single sine
E (V)               0.0000
vs.                 Ref
tE (h:m:s)          0:00:0.0000
record              0
dI                  0.000
unit dI             mA
dt (s)              0.000
fi                  1.000
unit fi             MHz
ff                  100.000
unit ff             mHz
Nd                  6
Points              per decade
spacing             Logarithmic
Va (mV)             10.0
pw                  0.10
Na                  2
corr                0
E range min (V)     -1.000
E range max (V)     1.000
I Range             10 mA
Bandwidth           5
nc cycles           0
goto Ns'            0
nr cycles           0
inc. cycle          0

Number of loops : 1
Loop 0 from point number 0 to 42

freq/Hz	Re(Z)/Ohm	-Im(Z)/Ohm	|Z|/Ohm	Phase(Z)/deg	time/s	<Ewe>/V	<I>/mA	Cs/uF	Cp/uF	cycle number	I Range	|Ewe|/V	|I|/A	Ns	(Q-Qo)/mA.h	Re(Y)/Ohm-1	Im(Y)/Ohm-1	|Y|/Ohm-1	Phase(Y)/deg	Re(C)/nF	Im(C)/nF	|C|/nF	Phase(C)/deg	Re(M)	Im(M)	|M|	Phase(M)/deg	Re(Permittivity)	Im(Permittivity)	|Permittivity|	Phase(Permittivity)/deg	Re(Resistivity)/Ohm.cm	Im(Resistivity)/Ohm.cm	|Resistivity|/Ohm.cm	Phase(Resistivity)/deg	Re(Conductivity)/mS/cm	Im(Conductivity)/mS/cm	|Conductivity|/mS/cm	Phase(Conductivity)/deg	Tan(Delta)	Loss Angle(Delta)/deg	dq/mA.h
1.00002e+06	32.0265	50.3808	59.6986	-57.5564	10.7379	0.000882732	0.0198879	0.00315898	0.00224983	1	11	0.0026209	4.39023e-05	0	1.88965e-06	0.00898631	0.0141363	0.0167508	57.5564	2.24983	1.43019	2.66593	-32.4436	0.0000000E+000	0.0000000E+000	0.0000000E+000	32.4436	0.0000000E+000	0.0000000E+000	0.0000000E+000	-32.4436	0.0000000E+000	0.0000000E+000	0.0000000E+000	-57.5564	0.0000000E+000	0.0000000E+000	0.0000000E+000	57.5564	0.635688	32.4436	1.88965e-06
464157	33.6791	3.9769	33.9131	-6.73442	11.4459	0.00038138	-0.00674189	0.0862205	0.00118567	1	11	0.00953585	0.000281185	0	7.81073e-07	0.0292837	0.00345787	0.0294871	6.73442	1.18567	10.0411	10.1108	-83.2656	0.0000000E+000	0.0000000E+000	0.0000000E+000	83.2656	0.0000000E+000	0.0000000E+000	0.0000000E+000	-83.2656	0.0000000E+000	0.0000000E+000	0.0000000E+000	-6.73442	0.0000000E+000	0.0000000E+000	0.0000000E+000	6.73442	8.46869	83.2656	-3.77504e-07
215447	20.67	-1.72265	20.7417	4.76405	12.2899	0.000217051	-0.00801837	-0.428828	-0.00295794	1	11	0.0105391	0.000508114	0	-1.09786e-06	0.0480455	-0.00400414	0.0482121	-4.76405	-2.95794	35.4922	35.6153	-94.7641	0.0000000E+000	0.0000000E+000	0.0000000E+000	94.7641	0.0000000E+000	0.0000000E+000	0.0000000E+000	-94.7641	0.0000000E+000	0.0000000E+000	0.0000000E+000	4.76405	0.0000000E+000	0.0000000E+000	0.0000000E+000	-4.76405	11.999	85.2359	-3.14424e-07
100004	18.6932	-0.412272	18.6977	1.26344	13.1339	0.000237376	-0.00342234	-3.86029	-0.00187677	1	11	0.0105697	0.000565296	0	-6.16952e-07	0.0534695	-0.00117925	0.0534825	-1.26344	-1.87677	85.0962	85.1169	-91.2634	0.0000000E+000	0.0000000E+000	0.0000000E+000	91.2634	0.0000000E+000	0.0000000E+000	0.0000000E+000	-91.2634	0.0000000E+000	0.0000000E+000	0.0000000E+000	1.26344	0.0000000E+000	0.0000000E+000	0.0000000E+000	-1.26344	45.3418	88.7366	2.7904e-07
46420.4	18.4696	-0.110379	18.47	0.342408	13.9779	0.000245498	-0.00198807	-31.0618	-0.00110934	1	11	0.0105361	0.000570445	0	-1.36984e-06	0.054141	-0.000323558	0.0541419	-0.342408	-1.10934	185.625	185.629	-90.3424	0.0000000E+000	0.0000000E+000	0.0000000E+000	90.3424	0.0000000E+000	0.0000000E+000	0.0000000E+000	-90.3424	0.0000000E+000	0.0000000E+000	0.0000000E+000	0.342408	0.0000000E+000	0.0000000E+000	0.0000000E+000	-0.342408	167.33	89.6576	3.39486e-07
21544.7	18.4589	-0.0198395	18.4589	0.061581	14.8229	0.000240003	-0.00205018	-372.348	-0.000430127	1	11	0.0104658	0.000566975	0	-2.95998e-06	0.0541743	-5.8226e-05	0.0541743	-0.061581	-0.430152	400.196	400.196	-90.0616	0.0000000E+000	0.0000000E+000	0.0000000E+000	90.0616	0.0000000E+000	0.0000000E+000	0.0000000E+000	-90.0616	0.0000000E+000	0.0000000E+000	0.0000000E+000	0.061581	0.0000000E+000	0.0000000E+000	0.0000000E+000	-0.061581	930.413	89.9384	-9.48493e-07
10002.2	18.4218	0.00645459	18.4218	-0.0200752	15.6669	0.000251776	-0.00175008	2465.22	0.000302642	1	11	0.0103439	0.000561504	0	-2.58277e-06	0.0542836	1.90198e-05	0.0542836	0.0200752	0.302608	863.759	863.759	-89.9799	0.0000000E+000	0.0000000E+000	0.0000000E+000	89.9799	0.0000000E+000	0.0000000E+000	0.0000000E+000	-89.9799	0.0000000E+000	0.0000000E+000	0.0000000E+000	-0.0200752	0.0000000E+000	0.0000000E+000	0.0000000E+000	0.0200752	2854.06	89.9799	1.45593e-07
4641.49	18.4577	0.0155178	18.4577	-0.0481699	16.9021	0.00023976	-0.00266734	2209.69	0.00156185	1	11	0.010102	0.000547306	0	-4.68398e-06	0.0541778	4.55486e-05	0.0541779	0.0481699	1.56191	1857.74	1857.74	-89.9518	0.0000000E+000	0.0000000E+000	0.0000000E+000	89.9518	0.0000000E+000	0.0000000E+000	0.0000000E+000	-89.9518	0.0000000E+000	0.0000000E+000	0.0000000E+000	-0.0481699	0.0000000E+000	0.0000000E+000	0.0000000E+000	0.0481699	1189.45	89.9518	-8.84934e-07
2155.69	18.4596	0.00244372	18.4596	-0.00758493	18.0531	0.00024669	-0.00192782	30212.2	0.000529469	1	11	0.0101912	0.00055208	0	-4.8746e-06	0.0541723	7.17144e-06	0.0541723	0.00758493	0.529377	3999.55	3999.55	-89.9924	0.0000000E+000	0.0000000E+000	0.0000000E+000	89.9924	0.0000000E+000	0.0000000E+000	0.0000000E+000	-89.9924	0.0000000E+000	0.0000000E+000	0.0000000E+000	-0.00758493	0.0000000E+000	0.0000000E+000	0.0000000E+000	0.00758493	7553.9	89.9924	-3.37923e-07
1000.32	18.4189	-0.00305422	18.4189	0.00950079	18.9831	0.000247771	-0.00211359	-52093.1	-0.00143237	1	11	0.0104268	0.000566092	0	-5.38753e-06	0.0542921	-9.00272e-06	0.0542921	-0.00950079	-1.43204	8638.09	8638.09	-90.0095	0.0000000E+000	0.0000000E+000	0.0000000E+000	90.0095	0.0000000E+000	0.0000000E+000	0.0000000E+000	-90.0095	0.0000000E+000	0.0000000E+000	0.0000000E+000	0.00950079	0.0000000E+000	0.0000000E+000	0.0000000E+000	-0.00950079	6030.63	89.9905	-6.31549e-07
463.961	18.4502	0.0313296	18.4502	-0.0972918	19.9146	0.000255409	-0.00254667	10949.3	0.0315712	1	11	0.0105028	0.000569249	0	-5.41111e-06	0.0541999	9.20348e-05	0.0542	0.0972918	31.5706	18592.5	18592.5	-89.9027	0.0000000E+000	0.0000000E+000	0.0000000E+000	89.9027	0.0000000E+000	0.0000000E+000	0.0000000E+000	-89.9027	0.0000000E+000	0.0000000E+000	0.0000000E+000	-0.0972918	0.0000000E+000	0.0000000E+000	0.0000000E+000	0.0972918	588.906	89.9027	1.01988e-08
215.345	18.4281	0.0433145	18.4282	-0.134671	20.8418	0.000228136	-0.00277794	17062.9	0.0942658	1	11	0.0105138	0.000570529	0	-5.59271e-06	0.0542646	0.000127546	0.0542647	0.134671	94.2681	40105.4	40105.5	-89.8653	0.0000000E+000	0.0000000E+000	0.0000000E+000	89.8653	0.0000000E+000	0.0000000E+000	0.0000000E+000	-89.8653	0.0000000E+000	0.0000000E+000	0.0000000E+000	-0.134671	0.0000000E+000	0.0000000E+000	0.0000000E+000	0.134671	425.45	89.8653	-4.81721e-07
100.032	18.4314	0.0832028	18.4316	-0.258642	21.7681	0.000238792	-0.0030109	19122.4	0.389667	1	11	0.0105192	0.000570716	0	-5.66896e-06	0.0542541	0.000244913	0.0542547	0.258642	389.67	86320.5	86321.3	-89.7414	0.0000000E+000	0.0000000E+000	0.0000000E+000	89.7414	0.0000000E+000	0.0000000E+000	0.0000000E+000	-89.7414	0.0000000E+000	0.0000000E+000	0.0000000E+000	-0.258642	0.0000000E+000	0.0000000E+000	0.0000000E+000	0.258642	221.524	89.7414	-4.06038e-07
46.4415	18.4136	0.155385	18.4143	-0.483485	22.698	0.000234227	-0.00333282	22054.8	1.57042	1	11	0.0105255	0.000571593	0	-5.64222e-06	0.0543038	0.000458249	0.0543057	0.483485	1570.41	186099	186105	-89.5165	0.0000000E+000	0.0000000E+000	0.0000000E+000	89.5165	0.0000000E+000	0.0000000E+000	0.0000000E+000	-89.5165	0.0000000E+000	0.0000000E+000	0.0000000E+000	-0.483485	0.0000000E+000	0.0000000E+000	0.0000000E+000	0.483485	118.503	89.5165	2.29509e-07
21.5517	18.4396	0.245582	18.4412	-0.763031	23.5767	0.000223106	-0.00370062	30070.6	5.3328	1	11	0.0105302	0.000571012	0	-5.18708e-06	0.0542215	0.000722133	0.0542263	0.763031	5332.8	400415	400450	-89.237	0.0000000E+000	0.0000000E+000	0.0000000E+000	89.237	0.0000000E+000	0.0000000E+000	0.0000000E+000	-89.237	0.0000000E+000	0.0000000E+000	0.0000000E+000	-0.763031	0.0000000E+000	0.0000000E+000	0.0000000E+000	0.763031	75.0853	89.237	1.09056e-06
10.0032	18.4191	0.444186	18.4245	-1.38145	24.5151	0.000232458	0.000234223	35819.2	20.8187	1	11	0.01053	0.000571522	0	-9.05064e-06	0.0542598	0.0013085	0.0542755	1.38145	20818.8	863295	863546	-88.6186	0.0000000E+000	0.0000000E+000	0.0000000E+000	88.6186	0.0000000E+000	0.0000000E+000	0.0000000E+000	-88.6186	0.0000000E+000	0.0000000E+000	0.0000000E+000	-1.38145	0.0000000E+000	0.0000000E+000	0.0000000E+000	1.38145	41.4672	88.6186	-3.7048e-06
4.63925	18.4294	0.996368	18.4563	-3.09463	25.3707	0.000236184	-0.000620375	34431.2	100.346	1	11	0.0105331	0.000570704	0	-1.31548e-05	0.0541029	0.00292502	0.054182	3.09463	100346	1.85606e+06	1.85878e+06	-86.9054	0.0000000E+000	0.0000000E+000	0.0000000E+000	86.9054	0.0000000E+000	0.0000000E+000	0.0000000E+000	-86.9054	0.0000000E+000	0.0000000E+000	0.0000000E+000	-3.09463	0.0000000E+000	0.0000000E+000	0.0000000E+000	3.09463	18.4966	86.9054	-7.60046e-06
2.15577	18.4093	2.12039	18.531	-6.57038	27.0941	0.000237511	-0.00296026	34817.9	455.863	1	11	0.0105376	0.000568644	0	-9.57536e-08	0.0536091	0.0061747	0.0539635	6.57038	455863	3.95783e+06	3.98399e+06	-83.4296	0.0000000E+000	0.0000000E+000	0.0000000E+000	83.4296	0.0000000E+000	0.0000000E+000	0.0000000E+000	-83.4296	0.0000000E+000	0.0000000E+000	0.0000000E+000	-6.57038	0.0000000E+000	0.0000000E+000	0.0000000E+000	6.57038	8.68205	83.4296	9.59218e-06
1.00006	18.4385	4.66997	19.0207	-14.2126	30.7067	0.000243694	0.000646555	34078.3	2054.25	1	11	0.0105435	0.000554318	0	-1.11568e-05	0.0509651	0.0129081	0.0525743	14.2126	2.05425e+06	8.11083e+06	8.36693e+06	-75.7874	0.0000000E+000	0.0000000E+000	0.0000000E+000	75.7874	0.0000000E+000	0.0000000E+000	0.0000000E+000	-75.7874	0.0000000E+000	0.0000000E+000	0.0000000E+000	-14.2126	0.0000000E+000	0.0000000E+000	0.0000000E+000	14.2126	3.94831	75.7874	-1.37061e-05
0.464091	18.8865	9.75385	21.2564	-27.3139	38.391	0.000246614	-0.00256994	35159.4	7403.07	1	11	0.0105424	0.000495961	0	-6.07526e-05	0.0417994	0.0215871	0.0470445	27.3139	7.40307e+06	1.43346e+07	1.61334e+07	-62.6861	0.0000000E+000	0.0000000E+000	0.0000000E+000	62.6861	0.0000000E+000	0.0000000E+000	0.0000000E+000	-62.6861	0.0000000E+000	0.0000000E+000	0.0000000E+000	-27.3139	0.0000000E+000	0.0000000E+000	0.0000000E+000	27.3139	1.93631	62.6861	-2.35582e-05
0.215268	18.9729	20.4998	27.9323	-47.2152	54.8692	0.000240353	-0.00194358	36065.5	19425.7	1	11	0.0105474	0.000377608	0	6.03489e-06	0.0243176	0.0262746	0.0358009	47.2152	1.94257e+07	1.79789e+07	2.64688e+07	-42.7848	0.0000000E+000	0.0000000E+000	0.0000000E+000	42.7848	0.0000000E+000	0.0000000E+000	0.0000000E+000	-42.7848	0.0000000E+000	0.0000000E+000	0.0000000E+000	-47.2152	0.0000000E+000	0.0000000E+000	0.0000000E+000	47.2152	0.925518	42.7848	5.32374e-05
0.0999041	19.9498	43.8516	48.1764	-65.5373	90.2746	0.000231254	-0.00196416	36328.8	30099.2	1	11	0.0105445	0.000218873	0	3.85391e-05	0.00859551	0.0188937	0.0207571	65.5373	3.00992e+07	1.36933e+07	3.30676e+07	-24.4627	0.0000000E+000	0.0000000E+000	0.0000000E+000	24.4627	0.0000000E+000	0.0000000E+000	0.0000000E+000	-24.4627	0.0000000E+000	0.0000000E+000	0.0000000E+000	-65.5373	0.0000000E+000	0.0000000E+000	0.0000000E+000	65.5373	0.45494	24.4627	-1.24856e-05