File: ACS_Catal_2026/Figures_Na_K/main_figures/data/EC/20240527_2-145_re-addition/20240527_2-145_inK_03_CVA_C02.mpt
EC-Lab ASCII FILE
Nb header lines : 66

Cyclic Voltammetry Advanced

Run on channel : 2 (SN 68855)
User :
CE vs. WE compliance from -10 V to 10 V
Electrode connection : standard
Potential control : Ewe
Ewe ctrl range : min = -1.00 V, max = 1.00 V
Safety Limits :
	Do not start on E overload
Acquisition started on : 05/28/2024 11:18:57.125
Loaded Setting File :  C:\Users\HZ-7000\Documents\EC-Lab\Data\Yatsuzuka\20240502_2-136_UPS_preparation\20240502_2-136_UPS_preparation_K-1.mps
Saved on :
	File : 20240527_2-145_inK_03_CVA_C02.mpr
	Directory : C:\Users\HZ-7000\Documents\EC-Lab\Data\Yatsuzuka\20240527_2-145_re-addition\
	Host : 192.109.209.100
Device : SP-150e (SN .003466)
Address : 192.109.209.128
EC-Lab for windows v11.50 (software)
Internet server v11.50 (firmware)
Command interpretor v11.50 (firmware)
Electrode material :
Initial state :
Electrolyte :
Comments :
Electrode surface area : 0.001 cm2
Characteristic mass : 0.001 g
Equivalent Weight : 0.000 g/eq.
Density : 0.000 g/cm3
Volume (V) : 0.001 cm3
Cycle Definition : Charge/Discharge alternance
Ei (V)              0.450
vs.                 Ref
ti (h:m:s)          0:00:10.0000
dti (s)             0.0000
dE/dt               5.000
dE/dt unit          mV/s
E1 (V)              0.700
vs.                 Ref
t1 (h:m:s)          0:00:0.0000
dt1 (s)             0.1000
Step percent        50
N                   10
E range min (V)     -1.000
E range max (V)     1.000
I Range             10 mA
I Range min         Unset
I Range max         Unset
I Range init        Unset
Bandwidth           5
E2 (V)              0.450
vs.                 Ref
t2 (h:m:s)          0:00:0.0000
dt2 (s)             0.1000
nc cycles           14
nr                  1
Reverse Scan        0
Ef (V)              0.000
vs.                 Eoc
tf (h:m:s)          0:00:0.0000
dtf (s)             0.1000

mode	ox/red	error	control changes	Ns changes	counter inc.	time/s	control/V	Ewe/V	<I>/mA	cycle number	(Q-Qo)/C	I Range	Ns	step time/s	P/W
2	1	0	1	0	0	231.391	0.449949	0.449384	0.00389451	1	0.0000000E+000	11	0	0.000000000000000E+000	1.75013e-06
2	1	0	1	0	0	244.029	0.513138	0.512494	0.0549366	1	0.000566516	11	0	12.5831	2.81547e-05
2	1	0	1	0	0	256.712	0.576553	0.575949	0.146214	1	0.00165114	11	0	25.2661	8.42119e-05
2	1	0	1	0	0	269.395	0.639968	0.639408	0.867511	1	0.00683928	11	0	37.9491	0.000554693
2	1	0	1	0	0	281.861	0.69769	0.697101	2.63251	1	0.0288203	11	0	50.4149	0.00183513
2	1	0	1	0	0	294.544	0.634276	0.633692	0.61685	1	0.0479068	11	0	63.0978	0.000390893
2	1	0	0	0	0	307.227	0.570861	0.570246	0.0323549	1	0.0508235	11	0	75.7808	1.84502e-05
2	0	0	1	0	0	319.91	0.507446	0.506828	-0.0243734	1	0.0507342	11	0	8.6883	-1.23531e-05
2	1	0	0	0	1	332.358	0.454817	0.454218	0.0315185	2	0.0504256	11	0	0.7989	1.43163e-05
2	1	0	1	0	1	345.041	0.518231	0.517607	0.0356587	2	0.050868	11	0	13.4818	1.84572e-05
2	1	0	1	0	1	357.724	0.581646	0.581009	0.10773	2	0.0516045	11	0	26.1648	6.25919e-05
2	1	0	1	0	1	370.407	0.645061	0.644486	0.835459	2	0.0562724	11	0	38.8478	0.000538442
2	1	0	1	0	1	382.853	0.692697	0.692096	2.26644	2	0.0777852	11	0	51.2936	0.00156859
2	1	0	1	0	1	395.536	0.629282	0.628676	0.465535	2	0.0935854	11	0	63.9766	0.000292671
2	1	0	1	0	1	408.219	0.565868	0.565248	0.0133576	2	0.0956505	11	0	76.6595	7.55034e-06
2	0	0	0	0	1	420.902	0.502453	0.50186	-0.0250869	2	0.0954853	11	0	10.3861	-1.25901e-05
2	1	0	1	0	0	433.35	0.45981	0.459199	0.0320933	3	0.0952336	11	0	1.7976	1.47372e-05
2	1	0	0	0	0	446.033	0.523225	0.522618	0.0377611	3	0.0956637	11	0	14.4805	1.97346e-05
2	1	0	1	0	0	458.716	0.58664	0.586043	0.115826	3	0.0964176	11	0	27.1635	6.78793e-05
2	1	0	1	0	0	471.398	0.650054	0.649462	0.897956	3	0.101449	11	0	39.8464	0.000583189
2	1	0	1	0	0	483.844	0.687704	0.68712	2.00756	3	0.123333	11	0	52.2923	0.00137944
2	1	0	1	0	0	496.527	0.624289	0.623685	0.363057	3	0.136794	11	0	64.9752	0.000226433
2	1	0	1	0	0	509.21	0.560874	0.560267	0.00488126	3	0.1383	11	0	77.6582	2.73481e-06
2	0	0	1	0	0	521.893	0.497459	0.496811	-0.0248703	3	0.138092	11	0	11.8841	-1.23558e-05
2	1	0	1	0	1	534.341	0.464803	0.464172	0.0331446	4	0.137899	11	0	2.7962	1.53848e-05
2	1	0	1	0	1	547.024	0.528218	0.527612	0.0353484	4	0.138323	11	0	15.4792	1.86503e-05
2	1	0	0	0	1	559.707	0.591633	0.591046	0.127437	4	0.139125	11	0	28.1621	7.5321e-05
2	1	0	1	0	1	572.39	0.655048	0.654448	0.981484	4	0.144697	11	0	40.8451	0.000642331
2	1	0	0	0	1	584.836	0.682711	0.682107	1.77234	4	0.166825	11	0	53.2909	0.00120892
2	1	0	1	0	1	597.519	0.619296	0.618698	0.282929	4	0.178243	11	0	65.9739	0.000175048
2	1	0	1	0	1	610.202	0.555881	0.555253	-0.00322102	4	0.179345	11	0	0.4993	-1.78848e-06
2	0	0	1	0	1	622.885	0.492466	0.491838	-0.0255963	4	0.179108	11	0	13.1823	-1.25892e-05
2	1	0	0	0	0	635.333	0.469797	0.469203	0.0318914	5	0.178975	11	0	3.7949	1.49635e-05
2	1	0	1	0	0	648.016	0.533211	0.532638	0.0381625	5	0.179398	11	0	16.4778	2.03268e-05
2	1	0	1	0	0	660.699	0.596626	0.596031	0.143315	5	0.180268	11	0	29.1608	8.54202e-05
2	1	0	1	0	0	673.382	0.660041	0.65946	1.08162	5	0.186514	11	0	41.8438	0.000713283
2	1	0	1	0	0	685.828	0.677717	0.677169	1.56521	5	0.208788	11	0	54.2896	0.00105991
2	1	0	1	0	0	698.511	0.614302	0.613719	0.220581	5	0.218466	11	0	66.9726	0.000135375
2	0	0	1	0	0	711.194	0.550888	0.550269	-0.00930614	5	0.219259	11	0	1.498	-5.12088e-06
2	0	0	0	0	0	723.877	0.487473	0.486862	-0.0255463	5	0.219	11	0	14.181	-1.24375e-05
2	1	0	1	0	1	736.325	0.47479	0.474189	0.0311122	6	0.218928	11	0	4.7935	1.47531e-05
2	1	0	0	0	1	749.008	0.538205	0.53757	0.0375513	6	0.219352	11	0	17.4765	2.01864e-05
2	1	0	1	0	1	761.69	0.601619	0.601015	0.165998	6	0.22031	11	0	30.1594	9.97672e-05
2	1	0	1	0	1	774.373	0.665034	0.664473	1.1863	6	0.227308	11	0	42.8424	0.000788261
2	1	0	1	0	1	786.819	0.672725	0.672113	1.36782	6	0.249481	11	0	55.2882	0.000919327
2	1	0	1	0	1	799.502	0.609309	0.608723	0.168094	6	0.25762	11	0	67.9712	0.000102323
2	0	0	1	0	1	812.185	0.545894	0.545281	-0.010369	6	0.25817	11	0	2.7963	-5.65402e-06
2	0	0	1	0	1	824.868	0.48248	0.481869	-0.0282005	6	0.257895	11	0	15.4792	-1.3589e-05
2	1	0	1	0	0	837.316	0.479783	0.47914	0.0323343	7	0.257883	11	0	5.7922	1.54927e-05
2	1	0	1	0	0	849.999	0.543198	0.54257	0.040546	7	0.25831	11	0	18.4752	2.19991e-05
2	1	0	0	0	0	862.682	0.606613	0.606009	0.18652	7	0.25937	11	0	31.1581	0.000113033
2	1	0	1	0	0	875.365	0.670028	0.669407	1.28965	7	0.267153	11	0	43.8411	0.000863302
2	1	0	0	0	0	887.811	0.667731	0.66713	1.17993	7	0.288739	11	0	56.2869	0.000787166
2	1	0	1	0	0	900.494	0.604316	0.603688	0.126158	7	0.295438	11	0	68.9699	7.61598e-05
2	0	0	1	0	0	913.177	0.540901	0.540291	-0.0152642	7	0.295792	11	0	3.8948	-8.24713e-06
2	0	0	1	0	0	925.86	0.477486	0.476854	-0.0290924	7	0.295504	11	0	16.5778	-1.38728e-05
2	1	0	1	0	1	938.308	0.484776	0.484185	0.0329511	8	0.295553	11	0	6.7908	1.59544e-05
2	1	0	1	0	1	950.991	0.548191	0.54757	0.0405085	8	0.295984	11	0	19.4738	2.21812e-05
2	1	0	1	0	1	963.674	0.611607	0.611013	0.212371	8	0.297157	11	0	32.1568	0.000129762
2	1	0	0	0	1	976.357	0.675021	0.674378	1.38672	8	0.305712	11	0	44.8397	0.000935175
2	1	0	1	0	1	988.803	0.662737	0.662127	0.999973	8	0.326317	11	0	57.2856	0.000662109
2	1	0	0	0	1	1001.49	0.599323	0.598748	0.0899149	8	0.331762	11	0	69.9685	5.38364e-05
2	0	0	1	0	1	1014.17	0.535908	0.535295	-0.016108	8	0.331962	11	0	4.9933	-8.62256e-06
2	0	0	1	0	1	1026.85	0.472493	0.471898	-0.0282618	8	0.331663	11	0	17.6762	-1.33367e-05
2	1	0	1	0	0	1039.3	0.48977	0.489131	0.0325819	9	0.331772	11	0	7.7895	1.59368e-05
2	1	0	0	0	0	1051.98	0.553185	0.552563	0.0431168	9	0.332208	11	0	20.4725	2.38248e-05
2	1	0	1	0	0	1064.67	0.616599	0.615971	0.239578	9	0.333509	11	0	33.1554	0.000147573
2	1	0	1	0	0	1077.35	0.680014	0.679371	1.48858	9	0.342908	11	0	45.8384	0.0010113
2	1	0	1	0	0	1089.79	0.657744	0.657136	0.840934	9	0.362358	11	0	58.2842	0.000552608
2	1	0	1	0	0	1102.48	0.594329	0.593728	0.0640958	9	0.366712	11	0	70.9672	3.80555e-05
2	0	0	1	0	0	1115.16	0.530914	0.530284	-0.0197663	9	0.366792	11	0	6.4913	-1.04818e-05
2	0	0	1	0	0	1127.84	0.4675	0.466875	-0.0266031	9	0.366487	11	0	19.1742	-1.24203e-05
2	1	0	1	0	1	1140.29	0.494764	0.494135	0.0303293	10	0.366655	11	0	8.7882	1.49868e-05
2	1	0	1	0	1	1152.97	0.558178	0.557562	0.0440151	10	0.367098	11	0	21.4711	2.45411e-05
2	1	0	0	0	1	1165.66	0.621593	0.62097	0.274333	10	0.368555	11	0	34.1541	0.000170353
2	1	0	1	0	1	1178.34	0.685007	0.684381	1.60041	10	0.378894	11	0	46.837	0.00109529
2	1	0	0	0	1	1190.79	0.652751	0.652155	0.70426	10	0.397082	11	0	59.2829	0.000459287
2	1	0	1	0	1	1203.47	0.589336	0.588728	0.043242	10	0.400543	11	0	71.9658	2.54578e-05
2	0	0	1	0	1	1216.15	0.525921	0.525273	-0.0200057	10	0.400535	11	0	7.5898	-1.05084e-05
2	0	0	1	0	1	1228.83	0.462506	0.461876	-0.0292854	10	0.400222	11	0	20.2728	-1.35262e-05
2	1	0	1	0	0	1241.28	0.499756	0.499084	0.0316869	11	0.400448	11	0	9.7868	1.58144e-05
2	1	0	1	0	0	1253.97	0.563171	0.562531	0.0460926	11	0.4009	11	0	22.4698	2.59285e-05
2	1	0	1	0	0	1266.65	0.626586	0.625997	0.313866	11	0.402549	11	0	35.1528	0.000196479
2	1	0	0	0	0	1279.33	0.690001	0.689426	1.74111	11	0.414003	11	0	47.8357	0.00120036
2	1	0	1	0	0	1291.78	0.647758	0.647138	0.577892	11	0.430763	11	0	60.2815	0.000373975
2	1	0	0	0	0	1304.46	0.584343	0.583658	0.0278263	11	0.433498	11	0	72.9645	1.6241e-05
2	0	0	1	0	0	1317.14	0.520928	0.52028	-0.0196534	11	0.433425	11	0	8.7882	-1.02253e-05
2	0	0	1	0	0	1329.83	0.457513	0.456902	-0.0302154	11	0.433105	11	0	21.4711	-1.38055e-05
2	1	0	1	0	1	1342.27	0.50475	0.504121	0.0316082	12	0.433389	11	0	10.7855	1.59344e-05
2	1	0	1	0	1	1354.96	0.568164	0.567542	0.0498452	12	0.433855	11	0	23.4684	2.82892e-05
2	1	0	1	0	1	1367.64	0.631579	0.630915	0.361174	12	0.43574	11	0	36.1514	0.00022787
2	1	0	1	0	1	1380.32	0.694994	0.694376	1.86681	12	0.448396	11	0	48.8344	0.00129627
2	1	0	1	0	1	1392.77	0.642764	0.642112	0.478377	12	0.463561	11	0	61.2802	0.000307171
2	1	0	1	0	1	1405.45	0.579349	0.578721	0.0166508	12	0.465714	11	0	73.9632	9.63617e-06
2	0	0	0	0	1	1418.14	0.515935	0.515303	-0.0206971	12	0.465592	11	0	9.687	-1.06653e-05
2	0	0	1	0	1	1430.82	0.45252	0.451892	-0.0298077	12	0.465265	11	0	22.37	-1.34699e-05
2	1	0	1	0	0	1443.27	0.509743	0.509137	0.0322106	13	0.465609	11	0	11.7842	1.63996e-05
2	1	0	1	0	0	1455.95	0.573158	0.572503	0.0550301	13	0.466093	11	0	24.4671	3.15049e-05
2	1	0	1	0	0	1468.63	0.636572	0.635975	0.415517	13	0.468261	11	0	37.15	0.000264258
2	1	0	1	0	0	1481.29	0.699863	0.699239	2.01954	13	0.482204	11	0	49.8081	0.00141214
2	1	0	1	0	0	1493.76	0.637771	0.637127	0.392211	13	0.495734	11	0	62.2788	0.000249888
2	1	0	1	0	0	1506.44	0.574356	0.573751	0.00753434	13	0.497419	11	0	74.9618	4.32283e-06
2	0	0	1	0	0	1519.13	0.510941	0.510342	-0.0223549	13	0.497257	11	0	10.8854	-1.14086e-05
2	1	0	1	0	1	1531.57	0.451321	0.450674	0.023032	14	0.496942	11	0	0.0998	1.03799e-05
2	1	0	1	0	1	1544.26	0.514736	0.514094	0.0301983	14	0.497329	11	0	12.7828	1.55248e-05
2	1	0	1	0	1	1556.94	0.578151	0.577558	0.0624927	14	0.497834	11	0	25.4658	3.60932e-05
2	1	0	1	0	1	1569.62	0.641566	0.64098	0.477637	14	0.50034	11	0	38.1487	0.000306156
2	1	0	1	0	1	1582.07	0.696192	0.695579	1.8453	14	0.515143	11	0	50.5946	0.00128356
2	1	0	1	0	1	1594.75	0.632778	0.632195	0.317193	14	0.527272	11	0	63.2775	0.000200528
2	1	0	0	0	1	1607.44	0.569363	0.5687	0.0018971	14	0.528566	11	0	75.9605	1.07888e-06
2	0	0	1	0	1	1620.12	0.505948	0.505352	-0.0230048	14	0.528375	11	0	11.9839	-1.16255e-05
2	1	0	0	0	0	1632.57	0.456315	0.455706	0.0299005	15	0.52811	11	0	1.0985	1.36258e-05
2	1	0	1	0	0	1645.25	0.519729	0.519135	0.030299	15	0.528498	11	0	13.7814	1.57293e-05
2	1	0	1	0	0	1657.93	0.583144	0.582498	0.0698704	15	0.529032	11	0	26.4644	4.06994e-05
2	1	0	1	0	0	1670.62	0.646559	0.645982	0.549252	15	0.531938	11	0	39.1474	0.000354807
2	1	0	1	0	0	1683.06	0.691199	0.690601	1.65681	15	0.547775	11	0	51.5932	0.0011442
2	1	0	1	0	0	1695.74	0.627784	0.62715	0.255393	15	0.558306	11	0	64.2762	0.00016017
2	1	0	1	0	0	1708.43	0.56437	0.563753	-0.00177249	15	0.559291	11	0	0.4993	-9.99248e-07
2	0	0	0	0	0	1721.11	0.500955	0.500335	-0.0236851	15	0.559075	11	0	13.1823	-1.18505e-05
2	0	0	1	0	0	1731.3	0.449999	0.449461	-0.0286956	15	0.558806	11	0	23.3683	-1.28976e-05