File: ACS_Catal_2026/Figures_Na_K/main_figures/data/EC/20240527_2-145_re-addition/20240527_2-145_inK_02_PEIS_C02.mpt
EC-Lab ASCII FILE
Nb header lines : 63

Potentio Electrochemical Impedance Spectroscopy

Run on channel : 2 (SN 68855)
User :
CE vs. WE compliance from -10 V to 10 V
Electrode connection : standard
Potential control : Ewe
Ewe ctrl range : min = -1.00 V, max = 1.00 V
Safety Limits :
	Do not start on E overload
Acquisition started on : 05/28/2024 11:18:57.125
Loaded Setting File :  C:\Users\HZ-7000\Documents\EC-Lab\Data\Yatsuzuka\20240502_2-136_UPS_preparation\20240502_2-136_UPS_preparation_K-1.mps
Saved on :
	File : 20240527_2-145_inK_02_PEIS_C02.mpr
	Directory : C:\Users\HZ-7000\Documents\EC-Lab\Data\Yatsuzuka\20240527_2-145_re-addition\
	Host : 192.109.209.100
Device : SP-150e (SN .003466)
Address : 192.109.209.128
EC-Lab for windows v11.50 (software)
Internet server v11.50 (firmware)
Command interpretor v11.50 (firmware)
Electrode material :
Initial state :
Electrolyte :
Comments :
Electrode surface area : 0.001 cm2
Characteristic mass : 0.001 g
Equivalent Weight : 0.000 g/eq.
Density : 0.000 g/cm3
Volume (V) : 0.001 cm3
Cycle Definition : Charge/Discharge alternance
Mode                Single sine
E (V)               0.4500
vs.                 Ref
tE (h:m:s)          0:00:0.0000
record              0
dI                  0.000
unit dI             mA
dt (s)              0.000
fi                  500.000
unit fi             kHz
ff                  1.000
unit ff             Hz
Nd                  6
Points              per decade
spacing             Logarithmic
Va (mV)             10.0
pw                  0.10
Na                  2
corr                0
E range min (V)     -1.000
E range max (V)     1.000
I Range             Auto
Bandwidth           5
nc cycles           0
goto Ns'            0
nr cycles           0
inc. cycle          0

freq/Hz	Re(Z)/Ohm	-Im(Z)/Ohm	|Z|/Ohm	Phase(Z)/deg	time/s	<Ewe>/V	<I>/mA	Cs/uF	Cp/uF	cycle number	I Range	|Ewe|/V	|I|/A	Ns	(Q-Qo)/mA.h	Re(Y)/Ohm-1	Im(Y)/Ohm-1	|Y|/Ohm-1	Phase(Y)/deg	Re(C)/nF	Im(C)/nF	|C|/nF	Phase(C)/deg	Re(M)	Im(M)	|M|	Phase(M)/deg	Re(Permittivity)	Im(Permittivity)	|Permittivity|	Phase(Permittivity)/deg	Re(Resistivity)/Ohm.cm	Im(Resistivity)/Ohm.cm	|Resistivity|/Ohm.cm	Phase(Resistivity)/deg	Re(Conductivity)/mS/cm	Im(Conductivity)/mS/cm	|Conductivity|/mS/cm	Phase(Conductivity)/deg	Tan(Delta)	Loss Angle(Delta)/deg	dq/mA.h
500019	29.837	-2.27794	29.9238	4.36584	201.054	0.449682	0.0567493	-0.139731	-0.000809732	1	10	0.0108381	0.000362189	0	5.51139e-05	0.0333212	-0.00254394	0.0334182	-4.36584	-0.809732	10.6061	10.6369	-94.3658	0.0000000E+000	0.0000000E+000	0.0000000E+000	94.3658	0.0000000E+000	0.0000000E+000	0.0000000E+000	-94.3658	0.0000000E+000	0.0000000E+000	0.0000000E+000	4.36584	0.0000000E+000	0.0000000E+000	0.0000000E+000	-4.36584	13.0983	85.6342	5.51139e-05
231063	16.8602	-1.62528	16.9383	5.50615	201.898	0.44936	0.0380591	-0.423802	-0.0039019	1	10	0.0109209	0.000644747	0	6.4732e-05	0.0587653	-0.00566482	0.0590377	-5.50615	-3.9019	40.4773	40.6649	-95.5061	0.0000000E+000	0.0000000E+000	0.0000000E+000	95.5061	0.0000000E+000	0.0000000E+000	0.0000000E+000	-95.5061	0.0000000E+000	0.0000000E+000	0.0000000E+000	5.50615	0.0000000E+000	0.0000000E+000	0.0000000E+000	-5.50615	10.3737	84.4939	4.85341e-06
106786	15.5319	-0.361526	15.5361	1.3334	202.878	0.449354	0.0322421	-4.12254	-0.00223235	1	10	0.0107007	0.000688766	0	7.52913e-05	0.064349	-0.00149781	0.0643664	-1.3334	-2.23236	95.9061	95.932	-91.3334	0.0000000E+000	0.0000000E+000	0.0000000E+000	91.3334	0.0000000E+000	0.0000000E+000	0.0000000E+000	-91.3334	0.0000000E+000	0.0000000E+000	0.0000000E+000	1.3334	0.0000000E+000	0.0000000E+000	0.0000000E+000	-1.3334	42.9619	88.6666	3.51521e-06
49352.4	15.3725	-0.10931	15.3729	0.407409	203.722	0.449359	0.0287691	-29.5021	-0.00149163	1	10	0.0104778	0.000681576	0	8.38858e-05	0.0650479	-0.00046254	0.0650496	-0.407409	-1.49163	209.771	209.776	-90.4074	0.0000000E+000	0.0000000E+000	0.0000000E+000	90.4074	0.0000000E+000	0.0000000E+000	0.0000000E+000	-90.4074	0.0000000E+000	0.0000000E+000	0.0000000E+000	0.407409	0.0000000E+000	0.0000000E+000	0.0000000E+000	-0.407409	140.632	89.5926	4.08365e-06
22806.6	15.3538	-0.045004	15.3538	0.167941	204.566	0.449365	0.0317942	-155.063	-0.00133222	1	10	0.0103347	0.000673099	0	9.11539e-05	0.06513	-0.000190905	0.0651303	-0.167941	-1.3322	454.508	454.51	-90.1679	0.0000000E+000	0.0000000E+000	0.0000000E+000	90.1679	0.0000000E+000	0.0000000E+000	0.0000000E+000	-90.1679	0.0000000E+000	0.0000000E+000	0.0000000E+000	0.167941	0.0000000E+000	0.0000000E+000	0.0000000E+000	-0.167941	341.165	89.8321	3.51503e-06
10540.4	15.3373	-0.00199679	15.3373	0.00745942	205.41	0.449357	0.0304263	-7561.92	-0.000128173	1	10	0.0101467	0.00066157	0	9.70902e-05	0.0652004	-8.48854e-06	0.0652004	-0.00745942	-0.12821	984.497	984.497	-90.0075	0.0000000E+000	0.0000000E+000	0.0000000E+000	90.0075	0.0000000E+000	0.0000000E+000	0.0000000E+000	-90.0075	0.0000000E+000	0.0000000E+000	0.0000000E+000	0.00745942	0.0000000E+000	0.0000000E+000	0.0000000E+000	-0.00745942	7681	89.9925	3.33586e-06
4871.56	15.3268	-0.00539315	15.3268	0.020161	206.234	0.449383	0.0299914	-6057.73	-0.000750048	1	10	0.0109433	0.000713996	0	0.000103576	0.065245	-2.29581e-05	0.065245	-0.020161	-0.750177	2131.57	2131.57	-90.0202	0.0000000E+000	0.0000000E+000	0.0000000E+000	90.0202	0.0000000E+000	0.0000000E+000	0.0000000E+000	-90.0202	0.0000000E+000	0.0000000E+000	0.0000000E+000	0.020161	0.0000000E+000	0.0000000E+000	0.0000000E+000	-0.020161	2841.91	89.9798	3.20376e-06
2250.72	15.3344	0.0129861	15.3344	-0.0485217	207.386	0.449383	0.0276251	5445.26	0.00390521	1	10	0.0101781	0.000663741	0	0.000112116	0.0652127	5.52263e-05	0.0652128	0.0485217	3.90531	4611.38	4611.38	-89.9515	0.0000000E+000	0.0000000E+000	0.0000000E+000	89.9515	0.0000000E+000	0.0000000E+000	0.0000000E+000	-89.9515	0.0000000E+000	0.0000000E+000	0.0000000E+000	-0.0485217	0.0000000E+000	0.0000000E+000	0.0000000E+000	0.0485217	1180.83	89.9515	3.11269e-06
1040.33	15.3508	0.0392096	15.3508	-0.146347	208.316	0.449381	0.0295324	3901.71	0.0254552	1	10	0.0102302	0.00066643	0	0.000119534	0.0651429	0.000166391	0.0651431	0.146347	25.4552	9965.86	9965.89	-89.8537	0.0000000E+000	0.0000000E+000	0.0000000E+000	89.8537	0.0000000E+000	0.0000000E+000	0.0000000E+000	-89.8537	0.0000000E+000	0.0000000E+000	0.0000000E+000	-0.146347	0.0000000E+000	0.0000000E+000	0.0000000E+000	0.146347	391.505	89.8537	4.12471e-06
480.769	15.3513	0.0777098	15.3514	-0.290035	209.246	0.44938	0.0271287	4259.98	0.109159	1	10	0.010241	0.000667101	0	0.00012611	0.0651396	0.000329744	0.0651404	0.290035	109.161	21564	21564.2	-89.71	0.0000000E+000	0.0000000E+000	0.0000000E+000	89.71	0.0000000E+000	0.0000000E+000	0.0000000E+000	-89.71	0.0000000E+000	0.0000000E+000	0.0000000E+000	-0.290035	0.0000000E+000	0.0000000E+000	0.0000000E+000	0.290035	197.546	89.71	3.25831e-06
222.061	15.362	0.169456	15.3629	-0.631997	210.17	0.449382	0.0275934	4229.52	0.514587	1	10	0.0102496	0.000667167	0	0.000132889	0.0650879	0.000717977	0.0650918	0.631997	514.586	46649.7	46652.5	-89.368	0.0000000E+000	0.0000000E+000	0.0000000E+000	89.368	0.0000000E+000	0.0000000E+000	0.0000000E+000	-89.368	0.0000000E+000	0.0000000E+000	0.0000000E+000	-0.631997	0.0000000E+000	0.0000000E+000	0.0000000E+000	0.631997	90.6546	89.368	3.20442e-06
102.667	15.3957	0.355959	15.3998	-1.32448	211.107	0.449385	0.0280543	4355	2.32678	1	10	0.010255	0.000665919	0	0.000140631	0.0649184	0.00150096	0.0649358	1.32448	2326.78	100637	100663	-88.6755	0.0000000E+000	0.0000000E+000	0.0000000E+000	88.6755	0.0000000E+000	0.0000000E+000	0.0000000E+000	-88.6755	0.0000000E+000	0.0000000E+000	0.0000000E+000	-1.32448	0.0000000E+000	0.0000000E+000	0.0000000E+000	1.32448	43.2514	88.6755	4.07684e-06
47.4443	15.4456	0.668962	15.4601	-2.47997	212.018	0.449369	0.0252363	5014.58	9.38882	1	10	0.0102534	0.000663215	0	0.000148221	0.064622	0.00279882	0.0646825	2.47997	9388.83	216778	216982	-87.52	0.0000000E+000	0.0000000E+000	0.0000000E+000	87.52	0.0000000E+000	0.0000000E+000	0.0000000E+000	-87.52	0.0000000E+000	0.0000000E+000	0.0000000E+000	-2.47997	0.0000000E+000	0.0000000E+000	0.0000000E+000	2.47997	23.089	87.52	3.84007e-06
21.9144	15.5476	1.31744	15.6033	-4.84345	213.122	0.449365	0.00597184	5512.62	39.2996	1	11	0.0102666	0.000657975	0	0.000153317	0.0638602	0.00541127	0.064089	4.84345	39299.6	463788	465450	-85.1565	0.0000000E+000	0.0000000E+000	0.0000000E+000	85.1565	0.0000000E+000	0.0000000E+000	0.0000000E+000	-85.1565	0.0000000E+000	0.0000000E+000	0.0000000E+000	-4.84345	0.0000000E+000	0.0000000E+000	0.0000000E+000	4.84345	11.8013	85.1565	2.16873e-06
10.1329	15.666	2.66645	15.8913	-9.65954	214.049	0.449375	0.00579772	5890.48	165.844	1	11	0.0102639	0.000645882	0	0.000156083	0.0620354	0.0105588	0.0629276	9.65954	165844	974370	988383	-80.3405	0.0000000E+000	0.0000000E+000	0.0000000E+000	80.3405	0.0000000E+000	0.0000000E+000	0.0000000E+000	-80.3405	0.0000000E+000	0.0000000E+000	0.0000000E+000	-9.65954	0.0000000E+000	0.0000000E+000	0.0000000E+000	9.65954	5.87522	80.3405	8.4978e-07
4.68375	16.0765	5.58834	17.0201	-19.168	214.899	0.449377	0.00457927	6080.55	655.522	1	11	0.0102779	0.00060387	0	0.000153104	0.0554969	0.0192913	0.0587542	19.168	655522	1.8858e+06	1.99648e+06	-70.832	0.0000000E+000	0.0000000E+000	0.0000000E+000	70.832	0.0000000E+000	0.0000000E+000	0.0000000E+000	-70.832	0.0000000E+000	0.0000000E+000	0.0000000E+000	-19.168	0.0000000E+000	0.0000000E+000	0.0000000E+000	19.168	2.87678	70.832	-8.11392e-07
2.16533	16.5336	11.7811	20.3016	-35.472	216.612	0.449382	0.00720713	6238.92	2100.98	1	11	0.0102756	0.000506148	0	0.000165001	0.040115	0.0285841	0.0492571	35.472	2.10098e+06	2.94851e+06	3.62047e+06	-54.528	0.0000000E+000	0.0000000E+000	0.0000000E+000	54.528	0.0000000E+000	0.0000000E+000	0.0000000E+000	-54.528	0.0000000E+000	0.0000000E+000	0.0000000E+000	-35.472	0.0000000E+000	0.0000000E+000	0.0000000E+000	35.472	1.4034	54.528	1.5346e-06
1.00006	16.909	24.5903	29.8429	-55.4865	221.272	0.449385	0.00485727	6471.85	4394.15	1	12	0.0102801	0.000344473	0	0.000152872	0.0189861	0.027611	0.0335088	55.4865	4.39415e+06	3.02154e+06	5.33275e+06	-34.5135	0.0000000E+000	0.0000000E+000	0.0000000E+000	34.5135	0.0000000E+000	0.0000000E+000	0.0000000E+000	-34.5135	0.0000000E+000	0.0000000E+000	0.0000000E+000	-55.4865	0.0000000E+000	0.0000000E+000	0.0000000E+000	55.4865	0.687629	34.5135	-2.53418e-06