File: ACS_Catal_2026/Figures_Na_K/main_figures/data/EC/20240527_2-145_re-addition/20240527_2-145_Na_added_C02.mpt
EC-Lab ASCII FILE
Nb header lines : 66

Cyclic Voltammetry Advanced

Run on channel : 2 (SN 68855)
User :
CE vs. WE compliance from -10 V to 10 V
Electrode connection : standard
Potential control : Ewe
Ewe ctrl range : min = -1.00 V, max = 1.00 V
Safety Limits :
	Do not start on E overload
Acquisition started on : 05/28/2024 11:52:02.544
Loaded Setting File :  C:\Users\HZ-7000\Documents\EC-Lab\Data\Yatsuzuka\20240502_2-136_UPS_preparation\20240502_2-136_UPS_preparation_K-1.mps
Saved on :
	File : 20240527_2-145_Na_added_C02.mpr
	Directory : C:\Users\HZ-7000\Documents\EC-Lab\Data\Yatsuzuka\20240527_2-145_re-addition\
	Host : 192.109.209.100
Device : SP-150e (SN .003466)
Address : 192.109.209.128
EC-Lab for windows v11.50 (software)
Internet server v11.50 (firmware)
Command interpretor v11.50 (firmware)
Electrode material :
Initial state :
Electrolyte :
Comments :
Electrode surface area : 0.001 cm2
Characteristic mass : 0.001 g
Equivalent Weight : 0.000 g/eq.
Density : 0.000 g/cm3
Volume (V) : 0.001 cm3
Cycle Definition : Charge/Discharge alternance
Ei (V)              0.450
vs.                 Ref
ti (h:m:s)          0:00:10.0000
dti (s)             0.0000
dE/dt               5.000
dE/dt unit          mV/s
E1 (V)              0.700
vs.                 Ref
t1 (h:m:s)          0:00:0.0000
dt1 (s)             0.1000
Step percent        50
N                   10
E range min (V)     -1.000
E range max (V)     1.000
I Range             10 mA
I Range min         Unset
I Range max         Unset
I Range init        Unset
Bandwidth           5
E2 (V)              0.450
vs.                 Ref
t2 (h:m:s)          0:00:0.0000
dt2 (s)             0.1000
nc cycles           0
nr                  1
Reverse Scan        0
Ef (V)              0.000
vs.                 Eoc
tf (h:m:s)          0:00:0.0000
dtf (s)             0.1000

mode	ox/red	error	control changes	Ns changes	counter inc.	time/s	control/V	Ewe/V	<I>/mA	cycle number	(Q-Qo)/C	I Range	Ns	step time/s	P/W
2	1	0	1	0	0	0.000000000000000E+000	0.449949	0.449384	0.00293901	1	0.0000000E+000	11	0	0.000000000000000E+000	1.32074e-06
2	1	0	1	0	0	0.8538	0.454218	0.453592	0.0290057	1	2.25267e-05	11	0	0.799	1.31568e-05
2	1	0	1	0	0	1.7525	0.458711	0.458129	0.0298371	1	5.01429e-05	11	0	1.6977	1.36692e-05
2	1	0	1	0	0	2.6513	0.463205	0.462623	0.029656	1	7.80095e-05	11	0	2.5965	1.37195e-05
2	1	0	1	0	0	3.5501	0.467699	0.467079	0.0300375	1	0.000105964	11	0	3.4953	1.40299e-05
2	1	0	1	0	0	4.4489	0.472193	0.471589	0.0305536	1	0.000134008	11	0	4.3941	1.44087e-05
2	1	0	1	0	0	5.3477	0.476687	0.476062	0.0308787	1	0.000162073	11	0	5.2929	1.47002e-05
2	1	0	1	0	0	6.2465	0.481181	0.480571	0.0315513	1	0.00019004	11	0	6.1917	1.51626e-05
2	1	0	1	0	0	7.1453	0.485675	0.4851	0.0316471	1	0.000217929	11	0	7.0905	1.5352e-05
2	1	0	1	0	0	8.0441	0.490169	0.489536	0.0317413	1	0.000245759	11	0	7.9893	1.55385e-05
2	1	0	1	0	0	8.9429	0.494663	0.494086	0.0318877	1	0.000273487	11	0	8.8881	1.57553e-05
2	1	0	1	0	0	9.8417	0.499157	0.498526	0.032042	1	0.00030124	11	0	9.7869	1.59738e-05
2	1	0	1	0	0	10.7405	0.503651	0.503035	0.032173	1	0.000329036	11	0	10.6857	1.61842e-05
2	1	0	1	0	0	11.6393	0.508146	0.507523	0.0319666	1	0.000356861	11	0	11.5845	1.62238e-05
2	1	0	1	0	0	12.5381	0.51264	0.512016	0.0314441	1	0.000384768	11	0	12.4833	1.60999e-05
2	1	0	1	0	0	13.4369	0.517134	0.516536	0.0312701	1	0.000412904	11	0	13.3821	1.61521e-05
2	1	0	1	0	0	14.3357	0.521627	0.520989	0.0311068	1	0.000441243	11	0	14.2809	1.62063e-05
2	1	0	1	0	0	15.2345	0.526121	0.52553	0.0310963	1	0.00046987	11	0	15.1797	1.6342e-05
2	1	0	0	0	0	16.1332	0.530615	0.53001	0.0314595	1	0.000498845	11	0	16.0784	1.66739e-05
2	1	0	0	0	0	17.032	0.535109	0.534525	0.0318372	1	0.000528375	11	0	16.9772	1.70178e-05
2	1	0	0	0	0	17.9308	0.539603	0.538987	0.0325507	1	0.000558525	11	0	17.876	1.75444e-05
2	1	0	0	0	0	18.8296	0.544097	0.543464	0.0339507	1	0.000589399	11	0	18.7748	1.8451e-05
2	1	0	0	0	0	19.7284	0.548591	0.547965	0.0353965	1	0.000621266	11	0	19.6736	1.9396e-05
2	1	0	0	0	0	20.6272	0.553085	0.552496	0.0375909	1	0.000654317	11	0	20.5724	2.07688e-05
2	1	0	0	0	0	21.526	0.557579	0.556991	0.0397196	1	0.000688743	11	0	21.4712	2.21234e-05
2	1	0	0	0	0	22.4248	0.562073	0.561458	0.0420979	1	0.000724976	11	0	22.37	2.36362e-05
2	1	0	0	0	0	23.3236	0.566567	0.565985	0.0455015	1	0.000763512	11	0	23.2688	2.57532e-05
2	1	0	1	0	0	24.2223	0.57106	0.570431	0.048762	1	0.000804781	11	0	24.1675	2.78153e-05
2	1	0	1	0	0	25.1211	0.575554	0.574954	0.0527937	1	0.000849352	11	0	25.0663	3.03539e-05
2	1	0	1	0	0	26.0199	0.580048	0.57944	0.0573785	1	0.000897888	11	0	25.9651	3.32474e-05
2	1	0	1	0	0	26.9187	0.584542	0.583965	0.0626479	1	0.000951303	11	0	26.8639	3.65842e-05
2	1	0	1	0	0	27.8175	0.589036	0.588478	0.0694886	1	0.00101067	11	0	27.7627	4.08926e-05
2	1	0	1	0	0	28.7163	0.59353	0.592928	0.0778158	1	0.00107732	11	0	28.6615	4.61392e-05
2	1	0	1	0	0	29.6151	0.598024	0.597375	0.088125	1	0.00115275	11	0	29.5603	5.26437e-05
2	1	0	1	0	0	30.5139	0.602518	0.601932	0.100879	1	0.00123864	11	0	30.4591	6.0722e-05
2	1	0	1	0	0	31.4127	0.607012	0.606399	0.115894	1	0.00133705	11	0	31.3579	7.02782e-05
2	1	0	1	0	0	32.3115	0.611506	0.610937	0.134237	1	0.00145039	11	0	32.2567	8.20105e-05
2	1	0	1	0	0	33.2103	0.616	0.615441	0.156006	1	0.00158138	11	0	33.1555	9.60126e-05
2	1	0	1	0	0	34.1091	0.620494	0.619893	0.181784	1	0.00173323	11	0	34.0543	0.000112686
2	1	0	1	0	0	35.0079	0.624988	0.624385	0.212301	1	0.00190976	11	0	34.9531	0.000132557
2	1	0	1	0	0	35.9067	0.629482	0.628855	0.24692	1	0.00211513	11	0	35.8519	0.000155277
2	1	0	1	0	0	36.8055	0.633976	0.633348	0.286669	1	0.00235371	11	0	36.7507	0.000181561
2	1	0	1	0	0	37.7043	0.63847	0.637893	0.332622	1	0.00263087	11	0	37.6495	0.000212177
2	1	0	1	0	0	38.603	0.642964	0.642406	0.383914	1	0.00295179	11	0	38.5482	0.000246629
2	1	0	1	0	0	39.5018	0.647458	0.646885	0.441977	1	0.00332234	11	0	39.447	0.000285908
2	1	0	1	0	0	40.4006	0.651952	0.651389	0.506652	1	0.00374845	11	0	40.3458	0.000330028
2	1	0	1	0	0	41.2994	0.656446	0.655841	0.577957	1	0.00423637	11	0	41.2446	0.000379048
2	1	0	1	0	0	42.1982	0.66094	0.660361	0.656971	1	0.00479236	11	0	42.1434	0.000433838
2	1	0	1	0	0	43.097	0.665434	0.664825	0.742146	1	0.00542228	11	0	43.0422	0.000493397
2	1	0	1	0	0	43.9958	0.669928	0.669337	0.834281	1	0.00613178	11	0	43.941	0.000558415
2	1	0	1	0	0	44.8946	0.674422	0.673807	0.933658	1	0.00692675	11	0	44.8398	0.000629105
2	1	0	1	0	0	45.7934	0.678916	0.6783	1.04605	1	0.00781551	11	0	45.7386	0.000709536
2	1	0	1	0	0	46.6922	0.68341	0.682789	1.16034	1	0.0088072	11	0	46.6374	0.000792267
2	1	0	1	0	0	47.591	0.687904	0.687277	1.281	1	0.00990332	11	0	47.5362	0.000880403
2	1	0	1	0	0	48.4897	0.692397	0.69181	1.40394	1	0.0111089	11	0	48.4349	0.000971257
2	1	0	1	0	0	49.3885	0.696891	0.696303	1.53425	1	0.0124291	11	0	49.3337	0.0010683
2	1	0	1	0	0	50.0702	0.699688	0.699072	1.60823	1	0.0135072	11	0	50.0154	0.00112427
2	1	0	1	0	0	50.969	0.695194	0.694563	1.45763	1	0.0148822	11	0	50.9142	0.00101241
2	1	0	1	0	0	51.8678	0.6907	0.690135	1.31469	1	0.0161263	11	0	51.813	0.000907316
2	1	0	1	0	0	52.7666	0.686206	0.685648	1.18377	1	0.017247	11	0	52.7118	0.000811648
2	1	0	1	0	0	53.6653	0.681712	0.68114	1.06097	1	0.0182551	11	0	53.6105	0.00072267
2	1	0	1	0	0	54.5641	0.677218	0.676602	0.947581	1	0.0191578	11	0	54.5093	0.000641136
2	1	0	1	0	0	55.4629	0.672725	0.672112	0.842281	1	0.0199622	11	0	55.4081	0.000566107
2	1	0	1	0	0	56.3617	0.66823	0.66767	0.74304	1	0.0206741	11	0	56.3069	0.000496106
2	1	0	1	0	0	57.2605	0.663736	0.663124	0.653135	1	0.0213011	11	0	57.2057	0.000433109
2	1	0	1	0	0	58.1593	0.659242	0.658617	0.571605	1	0.0218508	11	0	58.1045	0.000376469
2	1	0	1	0	0	59.0581	0.654748	0.654143	0.496065	1	0.0223297	11	0	59.0033	0.000324497
2	1	0	1	0	0	59.9569	0.650254	0.649663	0.427398	1	0.0227431	11	0	59.9021	0.000277665
2	1	0	1	0	0	60.8557	0.64576	0.645146	0.367257	1	0.0230983	11	0	60.8009	0.000236934
2	1	0	1	0	0	61.7545	0.641266	0.640683	0.312326	1	0.0234017	11	0	61.6997	0.000200102
2	1	0	1	0	0	62.6533	0.636772	0.636158	0.263272	1	0.0236587	11	0	62.5985	0.000167483
2	1	0	1	0	0	63.5521	0.632278	0.631688	0.220061	1	0.0238749	11	0	63.4973	0.00013901
2	1	0	1	0	0	64.4509	0.627784	0.627175	0.181664	1	0.0240551	11	0	64.3961	0.000113935
2	1	0	1	0	0	65.3497	0.62329	0.622687	0.149192	1	0.0242039	11	0	65.2949	9.28996e-05
2	1	0	1	0	0	66.2485	0.618796	0.618192	0.12171	1	0.0243261	11	0	66.1937	7.52401e-05
2	1	0	1	0	0	67.1473	0.614302	0.613731	0.0980488	1	0.0244255	11	0	67.0925	6.01756e-05
2	1	0	0	0	0	68.046	0.609809	0.609187	0.078278	1	0.0245054	11	0	67.9912	4.7686e-05
2	1	0	0	0	0	68.9448	0.605315	0.604741	0.0619134	1	0.0245687	11	0	68.89	3.74416e-05
2	1	0	0	0	0	69.8436	0.600821	0.60024	0.0484858	1	0.0246181	11	0	69.7888	2.91031e-05
2	1	0	0	0	0	70.7424	0.596327	0.595734	0.0371488	1	0.0246556	11	0	70.6876	2.21308e-05
2	1	0	0	0	0	71.6412	0.591833	0.591215	0.0271125	1	0.0246833	11	0	71.5864	1.60293e-05
2	1	0	0	0	0	72.54	0.587339	0.586737	0.0188319	1	0.0247025	11	0	72.4852	1.10494e-05
2	1	0	0	0	0	73.4388	0.582845	0.582244	0.0116277	1	0.0247149	11	0	73.384	6.77017e-06
2	1	0	0	0	0	74.3376	0.578351	0.57773	0.00526568	1	0.0247216	11	0	74.2828	3.04214e-06
2	1	0	0	0	0	75.2364	0.573857	0.573218	3.92563e-05	1	0.0247234	11	0	0.0999	2.25024e-08
2	0	0	0	0	0	76.1352	0.569363	0.568769	-0.00465353	1	0.0247212	11	0	0.6991	-2.64679e-06
2	0	0	0	0	0	77.034	0.564869	0.564268	-0.00839901	1	0.0247157	11	0	1.5979	-4.73929e-06
2	0	0	1	0	0	77.9327	0.560376	0.559819	-0.0115468	1	0.0247075	11	0	2.4966	-6.46409e-06
2	0	0	1	0	0	78.8315	0.555881	0.555256	-0.0142783	1	0.024697	11	0	3.3954	-7.92813e-06
2	0	0	1	0	0	79.7303	0.551387	0.550761	-0.0156809	1	0.0246847	11	0	4.2942	-8.63641e-06
2	0	0	1	0	0	80.6291	0.546893	0.546251	-0.0170357	1	0.0246706	11	0	5.193	-9.30577e-06
2	0	0	1	0	0	81.5279	0.542399	0.541727	-0.0180037	1	0.0246552	11	0	6.0918	-9.75309e-06
2	0	0	1	0	0	82.4267	0.537905	0.537302	-0.0186222	1	0.0246386	11	0	6.9906	-1.00057e-05
2	0	0	1	0	0	83.3255	0.533411	0.532826	-0.0194644	1	0.024621	11	0	7.8894	-1.03712e-05
2	0	0	1	0	0	84.2243	0.528917	0.528304	-0.0198961	1	0.0246025	11	0	8.7882	-1.05112e-05
2	0	0	1	0	0	85.1231	0.524423	0.523835	-0.0204045	1	0.0245833	11	0	9.687	-1.06886e-05
2	0	0	1	0	0	86.0219	0.519929	0.519303	-0.0211126	1	0.0245633	11	0	10.5858	-1.09638e-05
2	0	0	1	0	0	86.9207	0.515435	0.514771	-0.0218968	1	0.0245429	11	0	11.4846	-1.12718e-05
2	0	0	1	0	0	87.8195	0.510941	0.510315	-0.0228846	1	0.0245219	11	0	12.3834	-1.16783e-05
2	0	0	1	0	0	88.7183	0.506447	0.505851	-0.0238834	1	0.0245005	11	0	13.2822	-1.20815e-05
2	0	0	1	0	0	89.6171	0.501953	0.501329	-0.0245489	1	0.0244787	11	0	14.181	-1.2307e-05
2	0	0	1	0	0	90.5159	0.497459	0.496821	-0.0257044	1	0.0244565	11	0	15.0798	-1.27705e-05
2	0	0	1	0	0	91.4147	0.492965	0.492341	-0.0264678	1	0.0244339	11	0	15.9786	-1.30312e-05
2	0	0	1	0	0	92.3134	0.488472	0.487812	-0.0270213	1	0.0244109	11	0	16.8773	-1.31813e-05
2	0	0	1	0	0	93.2122	0.483978	0.483349	-0.0275961	1	0.0243876	11	0	17.7761	-1.33386e-05
2	0	0	1	0	0	94.111	0.479484	0.478864	-0.0275584	1	0.024364	11	0	18.6749	-1.31967e-05
2	0	0	1	0	0	95.0098	0.47499	0.474357	-0.0274681	1	0.0243399	11	0	19.5737	-1.30297e-05
2	0	0	1	0	0	95.9086	0.470496	0.469869	-0.0275071	1	0.0243154	11	0	20.4725	-1.29247e-05
2	0	0	1	0	0	96.8074	0.466002	0.465337	-0.0273153	1	0.0242906	11	0	21.3713	-1.27108e-05
2	0	0	1	0	0	97.7062	0.461508	0.460901	-0.0275341	1	0.0242654	11	0	22.2701	-1.26905e-05
2	0	0	1	0	0	98.605	0.457014	0.456403	-0.0273297	1	0.0242399	11	0	23.1689	-1.24734e-05
2	0	0	1	0	0	99.5038	0.45252	0.451914	-0.0275052	1	0.024214	11	0	24.0677	-1.243e-05
2	0	0	1	0	0	100.003	0.449999	0.449365	-0.0234116	1	0.0241995	11	0	24.5667	-1.05203e-05