File: ACS_Catal_2026/Figures_Na_K/main_figures/data/EC/20240527_2-145_re-addition/20240527_2-145_inK_01_CVA_C02.mpt
EC-Lab ASCII FILE
Nb header lines : 66

Cyclic Voltammetry Advanced

Run on channel : 2 (SN 68855)
User :
CE vs. WE compliance from -10 V to 10 V
Electrode connection : standard
Potential control : Ewe
Ewe ctrl range : min = -1.00 V, max = 1.00 V
Safety Limits :
	Do not start on E overload
Acquisition started on : 05/28/2024 11:18:57.125
Loaded Setting File :  C:\Users\HZ-7000\Documents\EC-Lab\Data\Yatsuzuka\20240502_2-136_UPS_preparation\20240502_2-136_UPS_preparation_K-1.mps
Saved on :
	File : 20240527_2-145_inK_01_CVA_C02.mpr
	Directory : C:\Users\HZ-7000\Documents\EC-Lab\Data\Yatsuzuka\20240527_2-145_re-addition\
	Host : 192.109.209.100
Device : SP-150e (SN .003466)
Address : 192.109.209.128
EC-Lab for windows v11.50 (software)
Internet server v11.50 (firmware)
Command interpretor v11.50 (firmware)
Electrode material :
Initial state :
Electrolyte :
Comments :
Electrode surface area : 0.001 cm2
Characteristic mass : 0.001 g
Equivalent Weight : 0.000 g/eq.
Density : 0.000 g/cm3
Volume (V) : 0.001 cm3
Cycle Definition : Charge/Discharge alternance
Ei (V)              0.350
vs.                 Ref
ti (h:m:s)          0:00:10.0000
dti (s)             0.0000
dE/dt               10.000
dE/dt unit          mV/s
E1 (V)              0.450
vs.                 Ref
t1 (h:m:s)          0:00:0.0000
dt1 (s)             0.1000
Step percent        50
N                   10
E range min (V)     -1.000
E range max (V)     1.000
I Range             Auto
I Range min         Unset
I Range max         Unset
I Range init        Unset
Bandwidth           5
E2 (V)              0.350
vs.                 Ref
t2 (h:m:s)          0:00:0.0000
dt2 (s)             0.1000
nc cycles           9
nr                  1
Reverse Scan        0
Ef (V)              0.000
vs.                 Eoc
tf (h:m:s)          0:00:0.0000
dtf (s)             0.1000

mode	ox/red	error	control changes	Ns changes	counter inc.	time/s	control/V	Ewe/V	<I>/mA	cycle number	(Q-Qo)/C	I Range	Ns	step time/s	P/W
2	1	0	0	0	0	0.000000000000000E+000	0.349933	0.349325	0.0238689	1	0.0000000E+000	13	0	0.000000000000000E+000	8.33802e-06
2	1	0	1	0	0	1.7551	0.367484	0.366901	0.156662	1	0.000246804	12	0	1.7278	5.74794e-05
2	1	0	1	0	0	3.5027	0.384961	0.38435	0.158216	1	0.000514772	12	0	3.4754	6.08104e-05
2	1	0	1	0	0	5.2503	0.402437	0.401831	0.146737	1	0.000780386	12	0	5.223	5.89636e-05
2	1	0	1	0	0	6.998	0.419914	0.419317	0.141842	1	0.00104023	12	0	6.9707	5.94767e-05
2	1	0	1	0	0	8.7457	0.43739	0.436817	0.146539	1	0.00129284	12	0	8.7184	6.40106e-05
2	0	0	1	0	0	10.4612	0.44543	0.4448	-0.0197613	1	0.00148004	13	0	0.0999	-8.78983e-06
2	0	0	1	0	0	12.2089	0.427953	0.427331	-0.046976	1	0.00141266	13	0	1.8476	-2.00743e-05
2	0	0	1	0	0	13.9565	0.410476	0.409843	-0.0691385	1	0.0013051	13	0	3.5952	-2.83359e-05
2	0	0	1	0	0	15.7042	0.392999	0.39237	-0.0887057	1	0.00117223	13	0	5.3429	-3.48054e-05
2	0	0	1	0	0	17.4518	0.375524	0.374922	-0.092381	1	0.00101794	13	0	7.0905	-3.46357e-05
2	0	0	1	0	0	19.2295	0.357747	0.357135	-0.111412	1	0.000840543	12	0	8.8682	-3.9789e-05
2	1	0	1	0	1	20.8832	0.358795	0.358181	0.104755	2	0.000820235	12	0	0.6991	3.75213e-05
2	1	0	1	0	1	22.6309	0.376272	0.375716	0.112612	2	0.00101754	12	0	2.4468	4.23103e-05
2	1	0	1	0	1	24.3785	0.393749	0.393158	0.113937	2	0.00120996	12	0	4.1944	4.47954e-05
2	1	0	1	0	1	26.1261	0.411225	0.410618	0.101075	2	0.00139583	12	0	5.942	4.15032e-05
2	1	0	1	0	1	27.8738	0.428701	0.428074	0.0997361	2	0.00157724	12	0	7.6897	4.26944e-05
2	1	0	1	0	1	29.6215	0.446178	0.445562	0.106964	2	0.00175574	12	0	9.4374	4.7659e-05
2	0	0	1	0	1	31.357	0.436442	0.435776	-0.0571854	2	0.00177927	12	0	1.0486	-2.492e-05
2	0	0	1	0	1	33.1047	0.418965	0.418283	-0.0717368	2	0.00166645	12	0	2.7963	-3.00063e-05
2	0	0	1	0	1	34.8523	0.401489	0.400862	-0.0815343	2	0.00153387	12	0	4.5439	-3.2684e-05
2	0	0	1	0	1	36.5999	0.384012	0.383423	-0.0867732	2	0.00138306	12	0	6.2915	-3.32708e-05
2	0	0	1	0	1	38.3476	0.366536	0.365873	-0.104836	2	0.00121503	12	0	8.0392	-3.83567e-05
2	0	0	1	0	0	40.0038	0.350033	0.34944	-0.115861	3	0.00103968	12	0	9.6954	-4.04863e-05
2	1	0	1	0	0	41.7291	0.367285	0.366672	0.102787	3	0.00118559	12	0	1.548	3.7689e-05
2	1	0	1	0	0	43.4767	0.384761	0.384126	0.103967	3	0.00137101	12	0	3.2956	3.99363e-05
2	1	0	1	0	0	45.2244	0.402238	0.401606	0.103311	3	0.0015487	12	0	5.0433	4.14902e-05
2	1	0	1	0	0	46.972	0.419713	0.419126	0.0920029	3	0.00171917	12	0	6.7909	3.85608e-05
2	1	0	1	0	0	48.7197	0.437191	0.436549	0.094109	3	0.00188483	12	0	8.5386	4.10832e-05
2	0	0	1	0	0	50.4053	0.445929	0.445295	-0.0453516	3	0.00200161	13	0	0.2147	-2.01948e-05
2	0	0	1	0	0	52.1529	0.428452	0.427848	-0.0621337	3	0.00189707	13	0	1.9623	-2.65838e-05
2	0	0	1	0	0	53.9006	0.410976	0.410378	-0.0735351	3	0.00177012	13	0	3.71	-3.01772e-05
2	0	0	1	0	0	55.6483	0.393499	0.392902	-0.0831217	3	0.00162669	13	0	5.4577	-3.26587e-05
2	0	0	1	0	0	57.3959	0.376023	0.375458	-0.0989388	3	0.00146729	13	0	7.2053	-3.71473e-05
2	0	0	1	0	0	59.1735	0.358247	0.357653	-0.100783	3	0.00128801	12	0	8.9829	-3.60453e-05
2	1	0	1	0	1	60.8273	0.358297	0.357674	0.106315	4	0.00124676	12	0	0.6492	3.80262e-05
2	1	0	1	0	1	62.5749	0.375773	0.375191	0.102495	4	0.00142918	12	0	2.3968	3.84553e-05
2	1	0	1	0	1	64.3226	0.39325	0.39264	0.0938523	4	0.00160593	12	0	4.1445	3.68502e-05
2	1	0	1	0	1	66.0703	0.410726	0.410111	0.0947238	4	0.00177419	12	0	5.8922	3.88473e-05
2	1	0	1	0	1	67.8179	0.428203	0.427594	0.0955874	4	0.0019353	12	0	7.6398	4.08726e-05
2	1	0	1	0	1	69.5655	0.445679	0.445048	0.0879437	4	0.00209224	12	0	9.3874	3.91391e-05
2	0	0	1	0	1	71.2511	0.43744	0.436811	-0.0638825	4	0.00207688	13	0	1.0486	-2.79046e-05
2	0	0	1	0	1	72.9988	0.419964	0.419315	-0.0688807	4	0.00195722	13	0	2.7963	-2.88827e-05
2	0	0	1	0	1	74.7465	0.402487	0.401895	-0.0833127	4	0.00182105	13	0	4.544	-3.3483e-05
2	0	0	1	0	1	76.4941	0.385011	0.384368	-0.0958865	4	0.00166972	13	0	6.2916	-3.68557e-05
2	0	0	1	0	1	78.2717	0.367235	0.366612	-0.10021	4	0.00149934	12	0	8.0692	-3.67381e-05
2	0	0	0	0	1	79.9928	0.349983	0.349421	-0.108759	4	0.00131835	12	0	9.7903	-3.80026e-05
2	1	0	1	0	0	81.6731	0.366785	0.36618	0.098694	5	0.00145256	12	0	1.498	3.61397e-05
2	1	0	1	0	0	83.4208	0.384262	0.383642	0.101863	5	0.00163015	12	0	3.2457	3.90788e-05
2	1	0	1	0	0	85.1685	0.401738	0.401153	0.0976579	5	0.00179908	12	0	4.9934	3.91758e-05
2	1	0	1	0	0	86.9161	0.419215	0.418604	0.0856777	5	0.00195953	12	0	6.741	3.5865e-05
2	1	0	1	0	0	88.6637	0.436691	0.436092	0.0853811	5	0.00211409	12	0	8.4886	3.72341e-05
2	0	0	1	0	0	90.3493	0.446428	0.445812	-0.0442689	5	0.00222577	13	0	0.1797	-1.97356e-05
2	0	0	1	0	0	92.097	0.428952	0.428331	-0.0734852	5	0.00211685	13	0	1.9274	-3.1476e-05
2	0	0	1	0	0	93.8447	0.411475	0.410844	-0.0795411	5	0.00198814	13	0	3.6751	-3.2679e-05
2	0	0	1	0	0	95.5923	0.393999	0.393394	-0.081524	5	0.00184453	13	0	5.4227	-3.2071e-05
2	0	0	1	0	0	97.3399	0.376522	0.375926	-0.0949773	5	0.00168594	13	0	7.1703	-3.57044e-05
2	0	0	1	0	0	99.1176	0.358745	0.358107	-0.100105	5	0.00150832	12	0	8.948	-3.58483e-05
2	1	0	1	0	1	100.771	0.357797	0.357184	0.102589	6	0.00145661	12	0	0.5992	3.66431e-05
2	1	0	1	0	1	102.519	0.375274	0.374651	0.100512	6	0.00163359	12	0	2.3469	3.7657e-05
2	1	0	1	0	1	104.267	0.39275	0.392169	0.0901479	6	0.00180473	12	0	4.0946	3.53532e-05
2	1	0	1	0	1	106.014	0.410227	0.409656	0.0912488	6	0.00196685	12	0	5.8422	3.73807e-05
2	1	0	1	0	1	107.762	0.427703	0.427086	0.0906974	6	0.00212115	12	0	7.5898	3.87356e-05
2	1	0	1	0	1	109.51	0.44518	0.444594	0.0817153	6	0.00227031	12	0	9.3375	3.63301e-05
2	0	0	1	0	1	111.195	0.43794	0.437326	-0.0627561	6	0.00225699	13	0	1.0136	-2.74449e-05
2	0	0	1	0	1	112.943	0.420463	0.419855	-0.0690523	6	0.00213615	13	0	2.7613	-2.8992e-05
2	0	0	1	0	1	114.69	0.402986	0.402383	-0.0842915	6	0.00200021	13	0	4.5089	-3.39175e-05
2	0	0	1	0	1	116.438	0.385509	0.384894	-0.0940549	6	0.0018499	13	0	6.2566	-3.62012e-05
2	0	0	1	0	1	118.186	0.368034	0.367418	-0.0957922	6	0.00168437	13	0	8.0042	-3.51958e-05
2	0	0	1	0	1	119.963	0.350257	0.349664	-0.113398	6	0.00149918	12	0	9.7819	-3.96512e-05
2	1	0	1	0	0	121.677	0.366885	0.36627	0.0974337	7	0.00162889	12	0	1.493	3.5687e-05
2	1	0	1	0	0	123.425	0.384362	0.383738	0.0933091	7	0.00180218	12	0	3.2407	3.58063e-05
2	1	0	1	0	0	125.172	0.401837	0.401208	0.0948999	7	0.00196649	12	0	4.9883	3.80746e-05
2	1	0	1	0	0	126.92	0.419315	0.41873	0.0898006	7	0.00212197	12	0	6.736	3.76022e-05
2	1	0	1	0	0	128.668	0.436791	0.43617	0.0798115	7	0.00227112	12	0	8.4836	3.48114e-05
2	0	0	1	0	0	130.393	0.445929	0.445302	-0.0553595	7	0.00237335	13	0	0.2297	-2.46517e-05
2	0	0	1	0	0	132.141	0.428452	0.427803	-0.0734959	7	0.00226192	13	0	1.9773	-3.14418e-05
2	0	0	1	0	0	133.889	0.410976	0.410322	-0.0742795	7	0.00213255	13	0	3.725	-3.04785e-05
2	0	0	1	0	0	135.636	0.393499	0.39291	-0.0831358	7	0.00198918	13	0	5.4727	-3.26649e-05
2	0	0	1	0	0	137.384	0.376023	0.375402	-0.0987259	7	0.00183146	13	0	7.2203	-3.70619e-05
2	0	0	1	0	0	139.161	0.358247	0.357678	-0.100583	7	0.00165465	12	0	8.9979	-3.59761e-05
2	1	0	1	0	1	140.845	0.358596	0.357961	0.0926665	8	0.00161571	13	0	0.6642	3.3171e-05
2	1	0	1	0	1	142.623	0.376372	0.375767	0.0990005	8	0.0017926	12	0	2.4418	3.72011e-05
2	1	0	1	0	1	144.37	0.393849	0.393259	0.0879093	8	0.00195955	12	0	4.1894	3.45711e-05
2	1	0	1	0	1	146.118	0.411325	0.410725	0.0874986	8	0.00211737	12	0	5.937	3.59378e-05
2	1	0	1	0	1	147.866	0.428802	0.428193	0.0889363	8	0.00226739	12	0	7.6847	3.80819e-05
2	1	0	1	0	1	149.613	0.446278	0.445699	0.0799368	8	0.00241195	12	0	9.4324	3.56278e-05
2	0	0	1	0	1	151.339	0.436442	0.435833	-0.0660497	8	0.00237669	13	0	1.1784	-2.87866e-05
2	0	0	1	0	1	153.087	0.418965	0.41837	-0.0784675	8	0.00225433	13	0	2.9261	-3.28284e-05
2	0	0	1	0	1	154.834	0.401489	0.400912	-0.0783602	8	0.00211775	13	0	4.6737	-3.14156e-05
2	0	0	1	0	1	156.582	0.384012	0.383359	-0.0875008	8	0.0019672	13	0	6.4213	-3.35442e-05
2	0	0	1	0	1	158.33	0.366536	0.365881	-0.104034	8	0.00180157	13	0	8.169	-3.80641e-05
2	0	0	1	0	0	160.013	0.350307	0.349669	-0.0696405	9	0.00162769	12	0	9.8527	-2.43511e-05
2	1	0	1	0	0	161.821	0.368383	0.36779	0.103957	9	0.00177568	12	0	1.6578	3.82343e-05
2	1	0	1	0	0	163.569	0.38586	0.385221	0.0916677	9	0.0019453	12	0	3.4055	3.53123e-05
2	1	0	1	0	0	165.316	0.403335	0.402736	0.0862219	9	0.00210591	12	0	5.1531	3.47246e-05
2	1	0	1	0	0	167.064	0.420813	0.420202	0.0895385	9	0.00225766	12	0	6.9008	3.76243e-05
2	1	0	1	0	0	168.811	0.438289	0.43766	0.0814185	9	0.00240276	12	0	8.6484	3.56336e-05
2	0	0	1	0	0	170.537	0.444431	0.443832	-0.0570943	9	0.00248104	13	0	0.4294	-2.53403e-05
2	0	0	1	0	0	172.285	0.426954	0.426326	-0.0747643	9	0.00236703	13	0	2.177	-3.1874e-05
2	0	0	1	0	0	174.032	0.409477	0.408819	-0.0745809	9	0.00223687	13	0	3.9247	-3.04901e-05
2	0	0	1	0	0	175.78	0.392001	0.391353	-0.0842711	9	0.00209319	13	0	5.6724	-3.29798e-05
2	0	0	1	0	0	177.528	0.374525	0.373915	-0.0995239	9	0.0019354	13	0	7.42	-3.72134e-05
2	0	0	1	0	0	179.305	0.356749	0.356149	-0.102724	9	0.00175872	12	0	9.1976	-3.65849e-05
2	1	0	1	0	1	180.989	0.360094	0.359487	0.0944051	10	0.00175091	13	0	0.829	3.39374e-05
2	1	0	1	0	1	182.737	0.377571	0.377002	0.100838	10	0.00192187	13	0	2.5766	3.80161e-05
2	1	0	1	0	1	184.484	0.395047	0.394469	0.0910404	10	0.00208534	13	0	4.3242	3.59127e-05
2	1	0	1	0	1	186.232	0.412524	0.411942	0.0816516	10	0.00223963	13	0	6.0719	3.36358e-05
2	1	0	1	0	1	187.98	0.43	0.429439	0.0860887	10	0.00238618	13	0	7.8196	3.69698e-05
2	1	0	1	0	1	189.727	0.447477	0.446891	0.0810391	10	0.00252726	13	0	9.5672	3.62156e-05
2	0	0	1	0	1	191.463	0.435143	0.43455	-0.0695832	10	0.00247258	13	0	1.3283	-3.02373e-05
2	0	0	1	0	1	193.21	0.417667	0.41703	-0.0765347	10	0.0023494	13	0	3.0759	-3.19172e-05
2	0	0	1	0	1	194.958	0.40019	0.399603	-0.0771943	10	0.00221245	13	0	4.8235	-3.08471e-05
2	0	0	1	0	1	196.706	0.382714	0.382094	-0.0924839	10	0.00206198	13	0	6.5712	-3.53376e-05
2	0	0	1	0	1	198.453	0.365237	0.364619	-0.101581	10	0.00189668	13	0	8.3189	-3.70382e-05
2	0	0	1	0	1	199.975	0.349983	0.349287	-0.0987728	10	0.00173958	12	0	9.8402	-3.45e-05