File: ACS_Catal_2026/Figures_Na_K/main_figures/data/EC/20240321_2-125_012_CV_all_03_CVA_C01.mpt
EC-Lab ASCII FILE
Nb header lines : 66

Cyclic Voltammetry Advanced

Run on channel : 1 (SN 66412)
User :
CE vs. WE compliance from -10 V to 10 V
Electrode connection : standard
Potential control : Ewe
Ewe ctrl range : min = -2.00 V, max = 2.00 V
Safety Limits :
	Do not start on E overload
Acquisition started on : 03/22/2024 09:42:28.384
Loaded Setting File :  NONE
Saved on :
	File : 20240321_2-125_012_CV_all_03_CVA_C01.mpr
	Directory : C:\Users\NakamuraT\Documents\EC-Lab\Data\Yatsuzuka\20240321_2-125_UV-vis_Na_addition\
	Host : 192.109.209.100
Device : SP-150e (SN .003411)
Address : 192.109.209.236
EC-Lab for windows v11.50 (software)
Internet server v11.50 (firmware)
Command interpretor v11.50 (firmware)
Electrode material :
Initial state :
Electrolyte :
Comments :
Electrode surface area : 0.001 cm2
Characteristic mass : 0.001 g
Equivalent Weight : 0.000 g/eq.
Density : 0.000 g/cm3
Volume (V) : 0.001 cm3
Cycle Definition : Charge/Discharge alternance
Ei (V)              0.000
vs.                 Ref
ti (h:m:s)          0:00:10.0000
dti (s)             1.0000
dE/dt               5.000
dE/dt unit          mV/s
E1 (V)              0.700
vs.                 Ref
t1 (h:m:s)          0:00:0.0000
dt1 (s)             0.1000
Step percent        50
N                   10
E range min (V)     -2.000
E range max (V)     2.000
I Range             Auto
I Range min         Unset
I Range max         Unset
I Range init        Unset
Bandwidth           5
E2 (V)              0.000
vs.                 Ref
t2 (h:m:s)          0:00:0.0000
dt2 (s)             0.1000
nc cycles           0
nr                  1
Reverse Scan        0
Ef (V)              0.000
vs.                 Eoc
tf (h:m:s)          0:00:0.0000
dtf (s)             0.1000

mode	ox/red	error	control changes	Ns changes	counter inc.	time/s	control/V	Ewe/V	<I>/mA	cycle number	(Q-Qo)/C	I Range	Ns	step time/s	P/W
2	0	0	0	0	0	21.0002	-4.76023e-05	0.000246447	-0.0420458	1	0.0000000E+000	13	0	0.000000000000000E+000	-1.03621e-08
2	1	0	1	0	0	30.531	0.00259794	0.00290325	0.0349694	1	-0.000231664	13	0	0.2	1.01525e-07
2	1	0	1	0	0	33.1313	0.0155998	0.0159221	0.088566	1	-4.28692e-05	13	0	2.8003	1.41016e-06
2	1	0	0	0	0	35.7316	0.0286014	0.0289365	0.095869	1	0.000198182	13	0	5.4006	2.77412e-06
2	1	0	0	0	0	38.332	0.0416031	0.0419086	0.0991855	1	0.000451632	13	0	8.001	4.15673e-06
2	1	0	0	0	0	40.9324	0.0546048	0.0549094	0.101999	1	0.00071279	13	0	10.6014	5.60072e-06
2	1	0	1	0	0	43.5326	0.0676066	0.0678613	0.105722	1	0.00098257	13	0	13.2016	7.17445e-06
2	1	0	1	0	0	46.173	0.0808083	0.0811135	0.109722	1	0.00126677	12	0	15.842	8.89997e-06
2	1	0	1	0	0	48.7734	0.09381	0.0940792	0.114135	1	0.00155771	12	0	18.4424	1.07377e-05
2	1	0	1	0	0	51.3738	0.106812	0.107095	0.118814	1	0.00186069	12	0	21.0428	1.27243e-05
2	1	0	0	0	0	53.974	0.119814	0.120131	0.123249	1	0.00217542	12	0	23.643	1.48059e-05
2	1	0	0	0	0	56.5744	0.132815	0.133153	0.127404	1	0.00250123	12	0	26.2434	1.69642e-05
2	1	0	0	0	0	59.1748	0.145817	0.146095	0.132004	1	0.00283828	12	0	28.8438	1.92852e-05
2	1	0	1	0	0	61.7751	0.158818	0.159071	0.135546	1	0.0031864	12	0	31.4441	2.15614e-05
2	1	0	1	0	0	64.3754	0.17182	0.172104	0.135517	1	0.00354145	12	0	34.0444	2.33229e-05
2	1	0	1	0	0	66.9758	0.184822	0.185124	0.12586	1	0.00388151	12	0	36.6448	2.32997e-05
2	1	0	1	0	0	69.5762	0.197824	0.198075	0.118411	1	0.0041979	12	0	39.2452	2.34543e-05
2	1	0	1	0	0	72.1765	0.210826	0.21118	0.113369	1	0.00449896	12	0	41.8455	2.39412e-05
2	1	0	0	0	0	74.7768	0.223827	0.224131	0.108647	1	0.00478748	12	0	44.4458	2.43511e-05
2	1	0	0	0	0	77.3772	0.236829	0.237132	0.103651	1	0.00506326	12	0	47.0462	2.45791e-05
2	1	0	0	0	0	79.9776	0.249831	0.250126	0.0986642	1	0.00532611	12	0	49.6466	2.46785e-05
2	1	0	1	0	0	82.5778	0.262832	0.263104	0.093732	1	0.00557615	12	0	52.2468	2.46612e-05
2	1	0	1	0	0	85.1782	0.275834	0.276117	0.0887789	1	0.0058133	12	0	54.8472	2.45134e-05
2	1	0	1	0	0	87.7786	0.288836	0.289116	0.0840595	1	0.00603821	12	0	57.4476	2.43029e-05
2	1	0	1	0	0	90.379	0.301838	0.30211	0.0795398	1	0.00625104	12	0	60.048	2.40298e-05
2	1	0	0	0	0	92.9792	0.314839	0.315106	0.0755772	1	0.00645303	12	0	62.6482	2.38149e-05
2	1	0	0	0	0	95.5796	0.327841	0.328111	0.0719534	1	0.00664507	12	0	65.2486	2.36087e-05
2	1	0	0	0	0	98.18	0.340843	0.341144	0.068657	1	0.0068282	12	0	67.849	2.34219e-05
2	1	0	1	0	0	100.78	0.353845	0.354127	0.0658889	1	0.00700346	12	0	70.4493	2.3333e-05
2	1	0	1	0	0	103.381	0.366846	0.367103	0.0633404	1	0.00717151	12	0	73.0496	2.32525e-05
2	1	0	1	0	0	105.981	0.379848	0.380077	0.0610985	1	0.00733343	12	0	75.65	2.32221e-05
2	1	0	1	0	0	108.581	0.39285	0.393146	0.059127	1	0.00748993	12	0	78.2504	2.32455e-05
2	1	0	0	0	0	111.182	0.405851	0.406159	0.0575393	1	0.00764156	12	0	80.8506	2.33701e-05
2	1	0	0	0	0	113.782	0.418853	0.419177	0.0560622	1	0.00778914	12	0	83.451	2.35e-05
2	1	0	0	0	0	116.382	0.431855	0.432112	0.0548721	1	0.00793321	12	0	86.0514	2.37109e-05
2	1	0	0	0	0	118.983	0.444857	0.445162	0.0538617	1	0.0080745	12	0	88.6518	2.39772e-05
2	1	0	1	0	0	121.583	0.457858	0.458133	0.0530473	1	0.00821359	12	0	91.252	2.43027e-05
2	1	0	1	0	0	124.183	0.47086	0.471088	0.0525303	1	0.00835095	12	0	93.8524	2.47464e-05
2	1	0	1	0	0	126.784	0.483862	0.484133	0.0522713	1	0.00848741	12	0	96.4528	2.53063e-05
2	1	0	1	0	0	129.384	0.496863	0.497131	0.0522598	1	0.00862359	12	0	99.0531	2.598e-05
2	1	0	0	0	0	131.984	0.509865	0.510125	0.052629	1	0.00876016	12	0	101.653	2.68474e-05
2	1	0	0	0	0	134.585	0.522867	0.523167	0.0533554	1	0.00889819	12	0	104.254	2.79138e-05
2	1	0	0	0	0	137.185	0.535869	0.536106	0.0548572	1	0.00903895	12	0	106.854	2.94093e-05
2	1	0	1	0	0	139.785	0.548871	0.549192	0.0576907	1	0.00918524	12	0	109.454	3.16833e-05
2	1	0	1	0	0	142.386	0.561872	0.562101	0.0627978	1	0.00934151	12	0	112.055	3.52987e-05
2	1	0	1	0	0	144.986	0.574874	0.575163	0.0718564	1	0.00951571	12	0	114.655	4.13291e-05
2	1	0	1	0	0	147.587	0.587876	0.588154	0.0876197	1	0.00972154	12	0	117.256	5.15339e-05
2	1	0	0	0	0	150.187	0.600877	0.601209	0.114623	1	0.00998187	12	0	119.856	6.89122e-05
2	1	0	0	0	0	152.787	0.613879	0.614172	0.158984	1	0.0103335	12	0	122.456	9.76436e-05
2	1	0	0	0	0	155.388	0.626881	0.627134	0.229624	1	0.0108331	12	0	125.057	0.000144005
2	1	0	0	0	0	157.988	0.639883	0.640145	0.33542	1	0.0115605	12	0	127.657	0.000214717
2	1	0	1	0	0	160.588	0.652884	0.653164	0.482277	1	0.0126161	12	0	130.257	0.000315006
2	1	0	1	0	0	163.189	0.665886	0.666153	0.666894	1	0.0141047	12	0	132.858	0.000444253
2	1	0	1	0	0	165.789	0.678888	0.679165	0.88355	1	0.0161186	12	0	135.458	0.000600076
2	1	0	1	0	0	168.409	0.691989	0.692181	1.12317	1	0.018746	11	0	138.078	0.000777439
2	1	0	0	0	0	170.532	0.69739	0.697696	1.22359	1	0.0213236	11	0	140.201	0.000853691
2	1	0	1	0	0	173.132	0.684388	0.684621	0.981969	1	0.0241789	11	0	142.801	0.000672277
2	1	0	1	0	0	175.732	0.671387	0.671659	0.757488	1	0.0264339	11	0	145.401	0.000508774
2	1	0	1	0	0	178.333	0.658385	0.658643	0.553446	1	0.0281289	11	0	148.002	0.000364523
2	1	0	1	0	0	180.973	0.645183	0.645416	0.372313	1	0.0293435	12	0	150.642	0.000240297
2	1	0	1	0	0	183.573	0.632181	0.632472	0.228257	1	0.030116	12	0	153.242	0.000144366
2	1	0	0	0	0	186.174	0.61918	0.619378	0.124363	1	0.0305646	12	0	155.843	7.70276e-05
2	1	0	0	0	0	188.774	0.606178	0.606413	0.0572864	1	0.0307929	12	0	158.443	3.47392e-05
2	1	0	0	0	0	191.394	0.593076	0.593361	0.0170253	1	0.030885	13	0	161.063	1.01021e-05
2	0	0	1	0	0	194.035	0.579875	0.58013	-0.00615331	1	0.0308961	14	0	0.6	-3.56972e-06
2	0	0	1	0	0	196.655	0.566773	0.567072	-0.0196175	1	0.0308607	13	0	3.2204	-1.11246e-05
2	0	0	1	0	0	199.255	0.553771	0.554079	-0.0274629	1	0.0307986	13	0	5.8208	-1.52166e-05
2	0	0	1	0	0	201.856	0.540769	0.541077	-0.032353	1	0.0307203	13	0	8.4212	-1.75055e-05
2	0	0	0	0	0	204.456	0.527768	0.528048	-0.0354155	1	0.030632	13	0	11.0214	-1.87011e-05
2	0	0	0	0	0	207.056	0.514766	0.515094	-0.0374658	1	0.030537	13	0	13.6218	-1.92984e-05
2	0	0	0	0	0	209.657	0.501764	0.502045	-0.0389399	1	0.0304375	13	0	16.2222	-1.95496e-05
2	0	0	1	0	0	212.257	0.488763	0.489064	-0.0401766	1	0.0303347	13	0	18.8225	-1.96489e-05
2	0	0	1	0	0	214.857	0.475761	0.476103	-0.0412083	1	0.0302291	13	0	21.4228	-1.96194e-05
2	0	0	1	0	0	217.458	0.462759	0.463029	-0.0421774	1	0.030121	13	0	24.0232	-1.95294e-05
2	0	0	1	0	0	220.058	0.449757	0.450067	-0.0431076	1	0.0300105	13	0	26.6236	-1.94013e-05
2	0	0	1	0	0	222.658	0.436755	0.437049	-0.0441132	1	0.0298974	13	0	29.2239	-1.92796e-05
2	0	0	0	0	0	225.259	0.423754	0.424066	-0.0452097	1	0.0297815	13	0	31.8242	-1.91719e-05
2	0	0	0	0	0	227.859	0.410752	0.410973	-0.0464901	1	0.0296624	13	0	34.4246	-1.91062e-05
2	0	0	0	0	0	230.46	0.39775	0.398044	-0.047915	1	0.0295397	13	0	37.025	-1.90722e-05
2	0	0	1	0	0	233.06	0.384749	0.385047	-0.0496501	1	0.0294131	13	0	39.6252	-1.91176e-05
2	0	0	1	0	0	235.66	0.371747	0.371979	-0.0515156	1	0.0292819	13	0	42.2256	-1.91627e-05
2	0	0	1	0	0	238.261	0.358745	0.358995	-0.0533841	1	0.0291459	13	0	44.826	-1.91646e-05
2	0	0	1	0	0	240.861	0.345743	0.345978	-0.0557181	1	0.0290044	13	0	47.4264	-1.92772e-05
2	0	0	0	0	0	243.461	0.332742	0.332987	-0.0581986	1	0.0288568	13	0	50.0266	-1.93794e-05
2	0	0	0	0	0	246.062	0.31974	0.320011	-0.0608931	1	0.0287023	13	0	52.627	-1.94864e-05
2	0	0	0	0	0	248.662	0.306738	0.306981	-0.0641284	1	0.0285402	13	0	55.2274	-1.96862e-05
2	0	0	1	0	0	251.262	0.293737	0.294045	-0.0673385	1	0.0283698	13	0	57.8277	-1.98006e-05
2	0	0	1	0	0	253.863	0.280735	0.281006	-0.0710049	1	0.0281904	13	0	60.428	-1.99528e-05
2	0	0	1	0	0	256.463	0.267733	0.268003	-0.07492	1	0.0280013	13	0	63.0284	-2.00788e-05
2	0	0	1	0	0	259.063	0.254731	0.254991	-0.0789211	1	0.0278017	13	0	65.6288	-2.01242e-05
2	0	0	0	0	0	261.664	0.24173	0.242037	-0.0832843	1	0.0275913	13	0	68.229	-2.01579e-05
2	0	0	1	0	0	264.264	0.228728	0.229005	-0.0876133	1	0.0273696	13	0	70.8294	-2.00639e-05
2	0	0	1	0	0	266.864	0.215726	0.215931	-0.0923368	1	0.0271359	13	0	73.4298	-1.99384e-05
2	0	0	1	0	0	269.465	0.202725	0.202976	-0.0972074	1	0.0268896	13	0	76.0302	-1.97308e-05
2	0	0	0	0	0	272.065	0.189723	0.189975	-0.10223	1	0.0266307	13	0	78.6304	-1.94211e-05
2	0	0	0	0	0	274.685	0.176621	0.176899	-0.108211	1	0.0263555	12	0	81.2508	-1.91424e-05
2	0	0	0	0	0	277.286	0.163619	0.163898	-0.11627	1	0.0260645	12	0	83.8512	-1.90564e-05
2	0	0	1	0	0	279.886	0.150618	0.150909	-0.126057	1	0.0257494	12	0	86.4515	-1.90231e-05
2	0	0	1	0	0	282.486	0.137616	0.1379	-0.132967	1	0.0254115	12	0	89.0518	-1.8336e-05
2	0	0	1	0	0	285.087	0.124614	0.124904	-0.136037	1	0.0250609	12	0	91.6522	-1.69916e-05
2	0	0	1	0	0	287.687	0.111612	0.111931	-0.137343	1	0.0247054	12	0	94.2526	-1.53729e-05
2	0	0	1	0	0	290.287	0.0986106	0.0988677	-0.138114	1	0.0243473	12	0	96.8529	-1.3655e-05
2	0	0	0	0	0	292.888	0.085609	0.0858945	-0.139193	1	0.0239866	12	0	99.4532	-1.19559e-05
2	0	0	0	0	0	295.488	0.0726072	0.0728768	-0.140155	1	0.0236236	12	0	102.054	-1.0214e-05
2	0	0	0	0	0	298.089	0.0596055	0.0598877	-0.141265	1	0.0232572	12	0	104.654	-8.46001e-06
2	0	0	1	0	0	300.689	0.0466038	0.0469029	-0.142157	1	0.0228887	12	0	107.254	-6.66759e-06
2	0	0	1	0	0	303.289	0.0336021	0.033883	-0.143893	1	0.0225171	12	0	109.855	-4.87553e-06
2	0	0	1	0	0	305.89	0.0206003	0.0208346	-0.146175	1	0.0221397	12	0	112.455	-3.04549e-06
2	0	0	1	0	0	308.49	0.0075986	0.00784338	-0.149892	1	0.0217552	12	0	115.055	-1.17566e-06
2	0	0	1	0	0	310	4.76023e-05	0.000246447	-0.155134	1	0.0215265	12	0	116.565	-3.82322e-08