File: ACS_Catal_2026/Figures_Na_K/main_figures/data/XAS/20240410_2-132_CEY_after_electrolysis/merge_4-K_CEY.nor
# XDI/1.0 Athena/0.9.26
# Element.edge:                  K
# Element.symbol:                Mn
# Column.1:                      energy eV
# Column.2:                      norm
# Column.3:                      nbkg
# Column.4:                      flat
# Column.5:                      fbkg
# Column.6:                      nder
# Column.7:                      nsec
# Athena.e0:                     6553.78
# Athena.eshift:                 0
# Athena.rbkg:                   1.0
# Athena.importance:             1
# Athena.standard:               None
# Athena.bkg_kweight:            2
# Athena.edge_step:              0.3695525
# Athena.fixed_step:             no
# Athena.pre_edge_range:         -150.000 -30.000
# Athena.pre_edge_line:          -0.371072 + 8.17752e-005 * E
# Athena.normalization_range:    150.000 1390.562
# Athena.post_edge_polynomial:   1.513267 - 0.000358575 * E + 3.19233e-08 * E^2 + 0 * E^3
# Athena.spline_range_energy:    0.000 1490.499
# Athena.clamps:                 0 24
# Athena.spline_range_k:         0.000 19.779
# Athena.kweight:                2
# Athena.window:                 hanning
# Athena.phase_correction:       no
# Athena.k_range:                1 12
# Athena.dk:                     1
# Athena.r_range:                1 2
# Athena.dr:                     0.0
# Athena.window:                 hanning
# Athena.plot_multiplier:        1
# Athena.y_offset:               0
# ///
#------------------------
#   e         norm        nbkg        flat        fbkg        nder        nsec
  6213.39       0.00529221   0.00529221   0.00529221   0.00529221  -2.39496e-05   1.7051e-06
  6253.79       0.00455801   0.00455801   0.00455801   0.00455801  -3.21111e-05  -3.20445e-06
  6294.7       0.00350847   0.00350847   0.00350847   0.00350847  -4.25738e-05   4.92878e-07
  6335.99       0.00261411   0.00261411   0.00261411   0.00261411  -3.0478e-05  -1.18299e-06
  6378.22       0.00147867   0.00147867   0.00147867   0.00147867  -2.68888e-05   2.333e-06
  6420.59       0.000473229   0.000473229   0.000473229   0.000473229  -8.00496e-06   7.67857e-07
  6463.99      -0.000536843  -0.000536843  -0.000536843  -0.000536843  -2.8439e-05   1.6835e-06
  6501.88      -0.000461343  -0.000461343  -0.000461343  -0.000461343  -6.67369e-06  -2.47834e-05
  6504.26      -0.000939934  -0.000939934  -0.000939934  -0.000939934   0.000250913   0.000298887
  6506.78      -0.000922716  -0.000922716  -0.000922716  -0.000922716   0.000205798   0.00175228
  6509.37      -0.000144018  -0.000144018  -0.000144018  -0.000144018   0.000120158  -0.000575503
  6511.82       0.000141129   0.00014113   0.000141129   0.00014113   0.000345209  -0.00102795
  6514.26       0.00033398   0.00033398   0.00033398   0.00033398   0.000560784  -0.00321397
  6516.9       0.000276489   0.000276489   0.000276489   0.000276489  -0.000602169  -0.000982559
  6519.38       0.000475952   0.000475953   0.000475952   0.000475953   0.000109056   0.000695727
  6521.76       0.00127988   0.00127988   0.00127988   0.00127988   0.000279618  -0.00130854
  6524.36       0.00166464   0.00166464   0.00166464   0.00166464   4.45359e-05  -0.000339365
  6526.91       0.00226853   0.00226853   0.00226853   0.00226853  -0.000159514   0.000150088
  6529.3       0.00352006   0.00352006   0.00352006   0.00352006  -4.46244e-05   0.000508045
  6531.83       0.00490895   0.00490895   0.00490895   0.00490895   0.000565806   0.0019308
  6534.44       0.00846715   0.00846715   0.00846715   0.00846715   0.00236897   0.00273782
  6536.87       0.0319483   0.0319483   0.0319483   0.0319483   0.0220442   0.00938207
  6539.32       0.0767308   0.0767308   0.0767308   0.0767308   0.0140777  -0.0135669
  6541.98       0.0695551   0.0695552   0.0695552   0.0695552   0.000948825   0.010658
  6544.45       0.102943       0.102943       0.102943       0.102943       0.0298451   0.0194939
  6546.85       0.263216       0.263216       0.263216       0.263216       0.0930863  -0.00468674
  6549.49       0.529298       0.529298       0.529298       0.529298       0.121183       0.0100989
  6552.05       0.799513       0.799513       0.799513       0.799513       0.104501       0.0160245
  6554.45        1.10027        2.67765        1.10031        2.67769       0.117237      -0.0149368
  6557.02        1.35713        1.92195        1.35732        1.92214       0.0714897  -0.0429964
  6559.64        1.40596        1.42677        1.40631        1.42711      -0.0221274  -0.0366841
  6562.1        1.26977        1.16189        1.27026        1.16238      -0.0605235   0.00153678
  6564.58        1.132        1.03356        1.13263        1.03419      -0.0375119   0.0294118
  6567.24        1.09341       0.990153        1.09419       0.990935       0.00141581   0.0135025
  6569.74        1.12687       0.981106        1.12779       0.98203       0.0185705   0.000253407
  6572.17        1.15815       0.97468        1.15921       0.97574       0.000594576  -0.00493475
  6574.82        1.13146       0.969125        1.13267       0.970334      -0.0250131  -0.0103259
  6577.38        1.05696       0.965107        1.05832       0.966459      -0.0312721  -0.00216884
  6579.81       0.972945       0.962415       0.974429       0.963899      -0.0279667   0.00794845
  6582.41       0.905071       0.960621       0.906697       0.962248      -0.0257852   0.00466766
  6585.04       0.860416       0.959848       0.862185       0.961617      -0.0130028   0.000176099
  6587.49       0.838028       0.959967       0.839929       0.961867      -0.00392983   0.00285856
  6590.01       0.835813       0.960831       0.837847       0.962866       0.000813644   0.000611589
  6594.03       0.847675       0.96352       0.849921       0.965767       0.0067145   0.00087588
  6607.46       0.989065       0.97915       0.991999       0.982084       0.0140139  -0.000182523
  6620.68        1.0629       0.993567        1.06648       0.997147      -0.00406924  -0.000988541
  6634        1.01569        1.00169        1.01989        1.00589       0.0011541   0.000466332
  6647.22        1.01591        1.00469        1.02069        1.00947      -0.00219396   1.15118e-05
  6660.53        1.00029        1.0041        1.00563        1.00945      -0.000863994  -0.000340777
  6676.24       0.95099        1.00079       0.956956        1.00676      -0.00345581   0.000385685
  6694.67       0.984509       0.996381       0.991148        1.00302       0.00443509  -0.000127891
  6713.16        1.02295       0.993167        1.0302        1.00042       0.000236139  -4.7906e-05
  6731.83        1.01451       0.990988        1.02233       0.998807      -0.00234536  -0.000214656
  6750.59       0.980758       0.989585       0.989082       0.997909       1.41053e-05   0.000193951
  6769.47       0.9855       0.988678       0.994271       0.997449      -0.000415593  -7.78775e-05
  6791.63       0.980995       0.987859       0.990211       0.997076       0.00036787   2.62271e-05
  6815.39       0.985297       0.98691       0.994897       0.99651       0.00025645   1.93108e-06
  6839.1       0.989101       0.985915       0.998987       0.995801       0.000247801  -2.13386e-05
  6863.11       0.988903       0.984963       0.99898       0.99504       8.86776e-05   1.35071e-05
  6887.41       0.987095       0.984164       0.997262       0.994331      -0.000320926  -2.55133e-05
  6911.83       0.976122       0.983636       0.986278       0.993792      -0.000370028   4.07728e-05
  6940.56       0.980039       0.983506       0.99005       0.993518       0.000549   5.54732e-06
  6969.35       0.990071       0.98392       0.999794       0.993644      -6.68736e-06  -2.62639e-05
  6998.4       0.98668       0.984811       0.995968       0.994098      -0.000120034  -9.83705e-06
  7027.69       0.984203       0.986105       0.992904       0.994805       0.000118479   1.91667e-05
  7057.52       0.99017       0.987746       0.99812       0.995695       7.49715e-05  -2.53787e-05
  7088.59       0.987311       0.989703       0.994316       0.996707      -8.38923e-05   4.36446e-06
  7122.31       0.990764       0.992027       0.996554       0.997817       0.000380831   1.44344e-06
  7156.53       0.996617       0.994572        1.00097       0.998929       7.30185e-05   2.04831e-06
  7191.02       0.998222       0.99731        1.00093        1.00002      -1.06605e-05  -2.62817e-06
  7226.21       0.999765        1.00027        1.00058        1.00108       5.7171e-05  -2.13972e-06
  7261.48        1.0021        1.00338        1.0008        1.00208       6.02354e-05  -4.275e-08
  7298.69        1.00627        1.0068        1.00251        1.00303       0.000115971   4.90637e-06
  7337.89        1.01115        1.01052        1.00454        1.00391       8.84454e-05   2.54092e-06
  7377.2        1.01487        1.01435        1.00513        1.00461       0.00015109  -1.7069e-06
  7417.38        1.01876        1.01833        1.00555        1.00512       4.6676e-05  -1.54757e-07
  7457.81        1.02227        1.02237        1.00528        1.00537       2.32153e-05   2.01664e-06
  7498.56        1.02625        1.02642        1.00517        1.00533       8.38553e-05  -4.89679e-06
  7542.29        1.03068        1.03073        1.00488        1.00493       0.000131527  -4.21727e-06
  7586.44        1.03493        1.03509        1.00404        1.0042       5.11124e-05   5.1371e-06
  7631.57        1.03952        1.03961        1.00309        1.00317       8.70097e-05   5.43601e-07
  7676.92        1.04423        1.04429        1.00186        1.00192       9.26627e-05   3.91826e-06
  7723.2        1.04937        1.04926        1.00058        1.00047       0.000117699   1.33938e-06
  7769.84        1.05451        1.05455       0.998873       0.998911       9.68261e-05   9.45275e-07
  7818.93        1.06041        1.06041       0.997162       0.997161       0.000120599  -2.64733e-06
  7868.81        1.0665        1.0666       0.995096       0.995198       0.000113202   2.34125e-06
  7919.03        1.07278        1.07301       0.99272       0.992959       0.000171539  -1.33083e-07
  7970.09        1.07943        1.07963       0.990128       0.990333       0.000194815   2.29499e-06
  8021.75        1.08676        1.08634       0.987659       0.987236       0.000133217   3.04959e-06
  8044.14        1.08983        1.08924       0.986334       0.985735       0.000115208  -1.86972e-06