File: ACS_Catal_2026/Figures_Na_K/main_figures/data/XAS/20240410_2-132_CEY_after_electrolysis/merge_4-Na_CEY.nor
# XDI/1.0 Athena/0.9.26
# Element.edge:                  K
# Element.symbol:                Mn
# Column.1:                      energy eV
# Column.2:                      norm
# Column.3:                      nbkg
# Column.4:                      flat
# Column.5:                      fbkg
# Column.6:                      nder
# Column.7:                      nsec
# Athena.e0:                     6553.78
# Athena.eshift:                 0
# Athena.rbkg:                   1.0
# Athena.importance:             1
# Athena.standard:               None
# Athena.bkg_kweight:            2
# Athena.edge_step:              0.3749037
# Athena.fixed_step:             no
# Athena.pre_edge_range:         -150.000 -30.000
# Athena.pre_edge_line:          -0.397705 + 8.43239e-005 * E
# Athena.normalization_range:    150.000 1390.562
# Athena.post_edge_polynomial:   1.478770 - 0.000351385 * E + 3.15229e-08 * E^2 + 0 * E^3
# Athena.spline_range_energy:    0.000 1490.499
# Athena.clamps:                 0 24
# Athena.spline_range_k:         0.000 19.779
# Athena.kweight:                2
# Athena.window:                 hanning
# Athena.phase_correction:       no
# Athena.k_range:                1 12
# Athena.dk:                     1
# Athena.r_range:                1 2
# Athena.dr:                     0.0
# Athena.window:                 hanning
# Athena.plot_multiplier:        1
# Athena.y_offset:               0
# ///
#------------------------
#   e         norm        nbkg        flat        fbkg        nder        nsec
  6213.46       0.0074625   0.0074625   0.0074625   0.0074625   1.20715e-05  -6.78347e-06
  6253.86       0.00629737   0.00629737   0.00629737   0.00629737  -4.46007e-05  -1.66728e-06
  6294.77       0.00443176   0.00443176   0.00443176   0.00443176  -4.57337e-05   5.1285e-06
  6336.06       0.00322925   0.00322925   0.00322925   0.00322925  -1.96296e-05  -7.12145e-06
  6378.12       0.00192238   0.00192238   0.00192238   0.00192238   3.29455e-06  -1.30932e-07
  6420.67       0.000519544   0.000519544   0.000519544   0.000519544  -1.75895e-05   6.8745e-07
  6463.95      -0.000541935  -0.000541935  -0.000541935  -0.000541935   8.52813e-06   1.02908e-06
  6501.82      -0.000803964  -0.000803964  -0.000803964  -0.000803964  -3.28752e-05   0.000539245
  6504.39      -0.000494119  -0.000494119  -0.000494119  -0.000494119   0.000577858  -0.000444367
  6506.88      -0.000814312  -0.000814312  -0.000814312  -0.000814312  -0.000514886   4.20961e-05
  6509.12      -0.000600884  -0.000600884  -0.000600884  -0.000600884  -0.000127376   0.00124175
  6511.92      -0.000482915  -0.000482915  -0.000482915  -0.000482915  -0.000344754   0.000288074
  6514.33      -0.000365365  -0.000365365  -0.000365365  -0.000365365  -0.000342708   0.000663576
  6516.62      -0.000283115  -0.000283115  -0.000283115  -0.000283115  -0.000128005   0.00127798
  6519.45       0.000736008   0.000736008   0.000736008   0.000736008   0.000302943   0.000796602
  6521.84       0.00136561   0.00136561   0.00136561   0.00136561   0.000354032  -0.000854823
  6524.28       0.00167559   0.00167559   0.00167559   0.00167559  -0.00014813  -2.24121e-05
  6526.8       0.00223792   0.00223792   0.00223792   0.00223792   0.000972677  -0.000574058
  6529.4       0.00272478   0.00272478   0.00272478   0.00272478  -0.000455501   0.00187831
  6531.91       0.00473505   0.00473505   0.00473505   0.00473505   0.00139723   0.00132995
  6534.16       0.0073412   0.0073412   0.0073412   0.0073412   0.00271208   0.00345987
  6536.97       0.0344958   0.0344958   0.0344958   0.0344958   0.0232221   0.00868253
  6539.4       0.0760642   0.0760642   0.0760642   0.0760642   0.0111034  -0.0134327
  6541.89       0.0693329   0.0693329   0.0693329   0.0693329   0.000306719   0.00707173
  6544.55       0.110966       0.110966       0.110966       0.110966       0.0353634   0.0238985
  6546.95       0.293248       0.293248       0.293248       0.293248       0.0989239  -0.00868368
  6549.57       0.558163       0.558163       0.558163       0.558163       0.116111       0.0051856
  6552.14       0.822199       0.822199       0.822199       0.822199       0.102819       0.0150881
  6554.56        1.11801        2.64512        1.11806        2.64517       0.111113      -0.0147504
  6557.1        1.36325        1.9081        1.36345        1.9083       0.0706319  -0.0467286
  6559.74        1.40522        1.41493        1.40557        1.41528      -0.0322152  -0.0419383
  6562.2        1.24944        1.15057        1.24994        1.15107      -0.0619683   0.00848486
  6564.66        1.11966        1.02328        1.1203        1.02392      -0.0329456   0.0310784
  6567.33        1.09167       0.979687        1.09247       0.980485       0.00560687   0.0169387
  6569.84        1.12925       0.972887        1.13019       0.97383       0.0171785  -0.000141903
  6572.26        1.1549       0.968821        1.15598       0.969902      -0.000889493  -0.00960268
  6574.9        1.12286       0.96545        1.12409       0.966681      -0.025816  -0.0131893
  6577.49        1.04905       0.96314        1.05043       0.964517      -0.0311024  -0.00369571
  6579.92       0.968024       0.96178       0.969536       0.963293      -0.0276939   0.00221849
  6582.49       0.901279       0.961128       0.902935       0.962784      -0.0263683   0.00331764
  6585.14       0.858203       0.961217       0.860004       0.963017      -0.0109794   0.000869992
  6587.6       0.838062       0.961913       0.839998       0.963848      -0.00240946   0.00340692
  6590.1       0.836562       0.963152       0.838633       0.965222       0.00214758  -0.00273447
  6594.13       0.850885       0.966089       0.853172       0.968376       0.00775996   0.00100993
  6607.4       0.993207       0.98036       0.996186       0.983339       0.0135894  -0.000407395
  6620.59        1.05964       0.993443        1.06328       0.997081      -0.00396799  -0.0008302
  6633.93        1.01528        1.00101        1.01955        1.00529       0.00109761   0.000478829
  6647.33        1.01453        1.00398        1.01941        1.00886      -0.00219174   2.0098e-05
  6660.63       0.998651        1.00362        1.00411        1.00908      -0.00082801  -0.000273249
  6676.02       0.953608        1.00079       0.959694        1.00687      -0.0031915   0.000337982
  6694.41       0.984017       0.99662       0.990801        1.0034       0.0040625  -0.000116163
  6713.24        1.0224       0.993354        1.02984        1.0008       0.000406651  -6.87136e-05
  6731.72        1.01447       0.991079        1.0225       0.999106      -0.00215247  -0.000211398
  6750.66       0.980093       0.989472       0.98866       0.99804      -7.95736e-06   0.000188618
  6769.39       0.983867       0.988376       0.99291       0.997419      -0.000237906  -1.64782e-05
  6791.52       0.981481       0.987396       0.99101       0.996925       0.000342294   1.81432e-05
  6815.3       0.984741       0.986398       0.9947       0.996357       0.000256885   3.08901e-06
  6839.2       0.98862       0.985425       0.998916       0.995721       0.000230743  -1.77161e-05
  6863.22       0.988521       0.984547       0.999058       0.995084      -7.45893e-05   1.72377e-05
  6887.3       0.985909       0.983834       0.996591       0.994516      -0.000307402  -3.63837e-06
  6911.94       0.976341       0.98335       0.98707       0.994079      -0.000316006   2.78055e-05
  6940.43       0.979415       0.983193       0.990072       0.99385       0.000496755   1.23483e-05
  6969.47       0.989269       0.983505       0.99971       0.993947      -4.99064e-06  -2.62818e-05
  6998.51       0.986345       0.984239       0.99643       0.994324      -0.000196414  -1.43528e-05
  7027.81       0.983852       0.985349       0.993434       0.994931       0.000105411   1.00369e-05
  7057.63       0.988323       0.986798       0.997244       0.99572       1.39783e-05  -1.04202e-05
  7088.49       0.985913       0.988572       0.993993       0.996652      -3.90302e-05   1.56169e-05
  7122.42       0.990057       0.990769       0.997028       0.99774       0.000301925   3.17759e-07
  7156.45       0.995219       0.993193        1.00088       0.998856       0.000101627   1.35721e-06
  7191.16       0.996625       0.995858        1.00075       0.999987       1.62953e-05  -2.5082e-08
  7225.9       0.997517       0.998687       0.999908        1.00108       5.59349e-05   7.77589e-06
  7261.17        1.00042        1.00169        1.00084        1.00211       0.000112043   2.30345e-07
  7298.6        1.00502        1.00498        1.00312        1.00308       0.000103371   6.43485e-07
  7337.99        1.00908        1.00853        1.00448        1.00393       0.000117844  -4.01263e-07
  7377.32        1.01229        1.01214        1.00473        1.00458       7.43168e-05  -9.43701e-07
  7417.28        1.01605        1.01585        1.00523        1.00503       0.000115016  -6.73061e-07
  7457.7        1.01987        1.01963        1.00546        1.00523       8.1346e-05  -2.32119e-06
  7498.47        1.02307        1.02345        1.00478        1.00516       6.72036e-05   1.12035e-07
  7541.95        1.02705        1.02752        1.0043        1.00477       0.000141185   3.995e-06
  7586.55        1.03242        1.03171        1.00478        1.00406       4.13638e-05  -4.28011e-06
  7631.44        1.03594        1.03599        1.00302        1.00308       0.000120922  -1.82917e-06
  7677.04        1.04025        1.04048        1.00164        1.00186       0.0001146  -5.5134e-07
  7723.11        1.0454        1.04519        1.00068        1.00047       9.34136e-05  -2.13846e-06
  7769.98        1.05055        1.05025       0.999235       0.998942       9.27347e-05  -1.1411e-06
  7819.06        1.05593        1.05585       0.997324       0.997242       0.000121534  -8.68275e-07
  7868.68        1.06152        1.06171       0.99513       0.995325       0.00011773   3.25022e-06
  7919.2        1.0675        1.06779       0.992762       0.993048       0.000112911   1.24052e-06
  7969.97        1.07372        1.07387       0.990157       0.990308       0.000145151   6.31607e-07
  8021.9        1.08068        1.07995       0.987647       0.986909       0.000118855   8.98934e-08
  8044.01        1.08318        1.08246       0.98597       0.985246       8.71279e-05  -4.55923e-06