File: ACS_Catal_2026/Figures_Na_K/main_figures/data/EC/20240401_2-128_CV_cycles_alpha_gamma/alpha/20240328_2-128_005_alpha_K-2_02_PEIS_C01.mpt
EC-Lab ASCII FILE
Nb header lines : 63

Potentio Electrochemical Impedance Spectroscopy

Run on channel : 1 (SN 66412)
User :
CE vs. WE compliance from -10 V to 10 V
Electrode connection : standard
Potential control : Ewe
Ewe ctrl range : min = -1.00 V, max = 1.00 V
Safety Limits :
	Do not start on E overload
Acquisition started on : 04/01/2024 19:56:53.320
Loaded Setting File :  C:\Users\NakamuraT\Documents\EC-Lab\Data\Yatsuzuka\20240328_2-129_UV-vis_K_Na_diff\20240328_2-129_001_preconditioning+CV_inK.mps
Saved on :
	File : 20240328_2-128_005_alpha_K-2_02_PEIS_C01.mpr
	Directory : C:\Users\NakamuraT\Documents\EC-Lab\Data\Yatsuzuka\20240401_2-128_CV_cycles_alpha_gamma\
	Host : 192.109.209.100
Device : SP-150e (SN .003411)
Address : 192.109.209.236
EC-Lab for windows v11.50 (software)
Internet server v11.50 (firmware)
Command interpretor v11.50 (firmware)
Electrode material :
Initial state :
Electrolyte :
Comments :
Electrode surface area : 0.001 cm2
Characteristic mass : 0.001 g
Equivalent Weight : 0.000 g/eq.
Density : 0.000 g/cm3
Volume (V) : 0.001 cm3
Cycle Definition : Charge/Discharge alternance
Mode                Single sine
E (V)               0.4500
vs.                 Ref
tE (h:m:s)          0:00:0.0000
record              0
dI                  0.000
unit dI             mA
dt (s)              0.000
fi                  500.000
unit fi             kHz
ff                  1.000
unit ff             Hz
Nd                  6
Points              per decade
spacing             Logarithmic
Va (mV)             10.0
pw                  0.10
Na                  2
corr                0
E range min (V)     -1.000
E range max (V)     1.000
I Range             Auto
Bandwidth           5
nc cycles           0
goto Ns'            0
nr cycles           0
inc. cycle          0

freq/Hz	Re(Z)/Ohm	-Im(Z)/Ohm	|Z|/Ohm	Phase(Z)/deg	time/s	<Ewe>/V	<I>/mA	Cs/uF	Cp/uF	cycle number	I Range	|Ewe|/V	|I|/A	Ns	(Q-Qo)/mA.h	Re(Y)/Ohm-1	Im(Y)/Ohm-1	|Y|/Ohm-1	Phase(Y)/deg	Re(C)/nF	Im(C)/nF	|C|/nF	Phase(C)/deg	Re(M)	Im(M)	|M|	Phase(M)/deg	Re(Permittivity)	Im(Permittivity)	|Permittivity|	Phase(Permittivity)/deg	Re(Resistivity)/Ohm.cm	Im(Resistivity)/Ohm.cm	|Resistivity|/Ohm.cm	Phase(Resistivity)/deg	Re(Conductivity)/mS/cm	Im(Conductivity)/mS/cm	|Conductivity|/mS/cm	Phase(Conductivity)/deg	Tan(Delta)	Loss Angle(Delta)/deg	dq/mA.h
500019	34.9619	-0.400609	34.9642	0.656492	200.666	0.450429	0.104444	-0.794536	-0.000104306	1	11	0.00816427	0.000233504	0	4.93794e-05	0.0285988	-0.000327698	0.0286007	-0.656492	-0.104306	9.10295	9.10355	-90.6565	0.0000000E+000	0.0000000E+000	0.0000000E+000	90.6565	0.0000000E+000	0.0000000E+000	0.0000000E+000	-90.6565	0.0000000E+000	0.0000000E+000	0.0000000E+000	0.656492	0.0000000E+000	0.0000000E+000	0.0000000E+000	-0.656492	87.2719	89.3435	4.93794e-05
231063	21.8589	-1.92473	21.9435	5.03204	201.949	0.450263	-0.00588316	-0.357867	-0.00275326	1	10	0.010787	0.000491582	0	5.14273e-05	0.0453959	-0.00399721	0.0455716	-5.03204	-2.75326	31.2685	31.3895	-95.032	0.0000000E+000	0.0000000E+000	0.0000000E+000	95.032	0.0000000E+000	0.0000000E+000	0.0000000E+000	-95.032	0.0000000E+000	0.0000000E+000	0.0000000E+000	5.03204	0.0000000E+000	0.0000000E+000	0.0000000E+000	-5.03204	11.3569	84.968	-8.49962e-07
106786	20.0844	-0.616891	20.0939	1.75928	202.793	0.450266	-0.0107401	-2.416	-0.00227711	1	10	0.0107359	0.000534286	0	4.85148e-05	0.0497429	-0.00152785	0.0497664	-1.75928	-2.27711	74.1371	74.1721	-91.7593	0.0000000E+000	0.0000000E+000	0.0000000E+000	91.7593	0.0000000E+000	0.0000000E+000	0.0000000E+000	-91.7593	0.0000000E+000	0.0000000E+000	0.0000000E+000	1.75928	0.0000000E+000	0.0000000E+000	0.0000000E+000	-1.75928	32.5575	88.2407	-1.20172e-06
49352.4	19.7681	-0.248269	19.7697	0.719543	203.637	0.450265	-0.012843	-12.9894	-0.0020485	1	10	0.0104511	0.000528645	0	4.51612e-05	0.0505785	-0.000635219	0.0505825	-0.719543	-2.0485	163.109	163.122	-90.7195	0.0000000E+000	0.0000000E+000	0.0000000E+000	90.7195	0.0000000E+000	0.0000000E+000	0.0000000E+000	-90.7195	0.0000000E+000	0.0000000E+000	0.0000000E+000	0.719543	0.0000000E+000	0.0000000E+000	0.0000000E+000	-0.719543	79.6238	89.2805	-1.71556e-06
22806.6	19.6845	-0.115502	19.6849	0.336187	204.481	0.450271	-0.0144365	-60.4187	-0.0020801	1	10	0.010209	0.00051862	0	4.07798e-05	0.0507995	-0.000298073	0.0508004	-0.336187	-2.08011	354.503	354.509	-90.3362	0.0000000E+000	0.0000000E+000	0.0000000E+000	90.3362	0.0000000E+000	0.0000000E+000	0.0000000E+000	-90.3362	0.0000000E+000	0.0000000E+000	0.0000000E+000	0.336187	0.0000000E+000	0.0000000E+000	0.0000000E+000	-0.336187	170.426	89.6638	-1.89561e-06
10540.4	19.6702	-0.0535523	19.6703	0.155988	205.325	0.450277	-0.0150728	-281.959	-0.00208988	1	10	0.0101446	0.000515733	0	3.7372e-05	0.0508379	-0.000138407	0.0508381	-0.155988	-2.08992	767.63	767.633	-90.156	0.0000000E+000	0.0000000E+000	0.0000000E+000	90.156	0.0000000E+000	0.0000000E+000	0.0000000E+000	-90.156	0.0000000E+000	0.0000000E+000	0.0000000E+000	0.155988	0.0000000E+000	0.0000000E+000	0.0000000E+000	-0.155988	367.308	89.844	-1.86436e-06
4871.56	19.6725	-0.0134037	19.6725	0.0390379	206.149	0.450299	-0.0156699	-2437.41	-0.00113151	1	10	0.0108199	0.00055	0	3.36718e-05	0.0508324	-3.46342e-05	0.0508324	-0.0390379	-1.13156	1660.71	1660.71	-90.039	0.0000000E+000	0.0000000E+000	0.0000000E+000	90.039	0.0000000E+000	0.0000000E+000	0.0000000E+000	-90.039	0.0000000E+000	0.0000000E+000	0.0000000E+000	0.0390379	0.0000000E+000	0.0000000E+000	0.0000000E+000	-0.0390379	1467.69	89.961	-2.46806e-06
2250.72	19.6756	0.0216268	19.6756	-0.0629778	207.079	0.450292	-0.0167969	3269.69	0.00395035	1	10	0.0109946	0.000558796	0	2.9153e-05	0.0508243	5.58646e-05	0.0508244	0.0629778	3.95053	3593.94	3593.94	-89.937	0.0000000E+000	0.0000000E+000	0.0000000E+000	89.937	0.0000000E+000	0.0000000E+000	0.0000000E+000	-89.937	0.0000000E+000	0.0000000E+000	0.0000000E+000	-0.0629778	0.0000000E+000	0.0000000E+000	0.0000000E+000	0.0629778	909.778	89.937	-2.56234e-06
1040.33	19.6764	0.0465828	19.6765	-0.135644	208.232	0.450294	-0.0163939	3284.15	0.0184068	1	10	0.0100578	0.000511158	0	2.32325e-05	0.050822	0.000120318	0.0508221	0.135644	18.4067	7774.98	7775	-89.8644	0.0000000E+000	0.0000000E+000	0.0000000E+000	89.8644	0.0000000E+000	0.0000000E+000	0.0000000E+000	-89.8644	0.0000000E+000	0.0000000E+000	0.0000000E+000	-0.135644	0.0000000E+000	0.0000000E+000	0.0000000E+000	0.135644	422.397	89.8644	-1.86687e-06
480.769	19.6982	0.0763641	19.6983	-0.222118	209.162	0.450287	-0.0177336	4335.05	0.0651498	1	10	0.0100687	0.000511144	0	1.87025e-05	0.0507653	0.000196802	0.0507657	0.222118	65.1489	16805.5	16805.6	-89.7779	0.0000000E+000	0.0000000E+000	0.0000000E+000	89.7779	0.0000000E+000	0.0000000E+000	0.0000000E+000	-89.7779	0.0000000E+000	0.0000000E+000	0.0000000E+000	-0.222118	0.0000000E+000	0.0000000E+000	0.0000000E+000	0.222118	257.951	89.7779	-2.27572e-06
222.061	19.6966	0.165737	19.6973	-0.482105	210.086	0.450302	-0.0185378	4324.42	0.306166	1	10	0.0100705	0.000511266	0	1.38216e-05	0.0507667	0.000427177	0.0507684	0.482105	306.168	36385.4	36386.7	-89.5179	0.0000000E+000	0.0000000E+000	0.0000000E+000	89.5179	0.0000000E+000	0.0000000E+000	0.0000000E+000	-89.5179	0.0000000E+000	0.0000000E+000	0.0000000E+000	-0.482105	0.0000000E+000	0.0000000E+000	0.0000000E+000	0.482105	118.842	89.5179	-2.74819e-06
102.667	19.7104	0.344384	19.7134	-1.00098	211.023	0.450295	-0.018883	4501.38	1.37375	1	10	0.010076	0.000511123	0	9.55424e-06	0.0507192	0.000886174	0.0507269	1.00098	1373.74	78624.8	78636.8	-88.999	0.0000000E+000	0.0000000E+000	0.0000000E+000	88.999	0.0000000E+000	0.0000000E+000	0.0000000E+000	-88.999	0.0000000E+000	0.0000000E+000	0.0000000E+000	-1.00098	0.0000000E+000	0.0000000E+000	0.0000000E+000	1.00098	57.2339	88.999	-2.09814e-06
47.4443	19.7665	0.678474	19.7781	-1.96587	212.178	0.450276	-0.00158185	4944.28	5.81833	1	11	0.0100775	0.00050953	0	5.86417e-06	0.0505311	0.00173445	0.0505609	1.96587	5818.33	169510	169610	-88.0341	0.0000000E+000	0.0000000E+000	0.0000000E+000	88.0341	0.0000000E+000	0.0000000E+000	0.0000000E+000	-88.0341	0.0000000E+000	0.0000000E+000	0.0000000E+000	-1.96587	0.0000000E+000	0.0000000E+000	0.0000000E+000	1.96587	29.1338	88.0341	-1.35168e-06
21.9144	19.7925	1.41705	19.8432	-4.0951	213.045	0.450265	-0.000979577	5125.14	26.1367	1	11	0.0100789	0.000507928	0	4.35769e-06	0.0502664	0.00359882	0.0503951	4.0951	26136.7	365063	365997	-85.9049	0.0000000E+000	0.0000000E+000	0.0000000E+000	85.9049	0.0000000E+000	0.0000000E+000	0.0000000E+000	-85.9049	0.0000000E+000	0.0000000E+000	0.0000000E+000	-4.0951	0.0000000E+000	0.0000000E+000	0.0000000E+000	4.0951	13.9675	85.9049	-1.29293e-06
10.1329	19.8899	3.07396	20.1261	-8.78545	213.972	0.450285	-0.00295742	5109.6	119.196	1	11	0.010079	0.000500791	0	7.31022e-06	0.0491038	0.0075889	0.0496868	8.78545	119197	771258	780414	-81.2145	0.0000000E+000	0.0000000E+000	0.0000000E+000	81.2145	0.0000000E+000	0.0000000E+000	0.0000000E+000	-81.2145	0.0000000E+000	0.0000000E+000	0.0000000E+000	-8.78545	0.0000000E+000	0.0000000E+000	0.0000000E+000	8.78545	6.47047	81.2145	3.06764e-06
4.68375	20.0994	6.29452	21.062	-17.389	214.822	0.450283	-0.00230181	5398.38	482.159	1	11	0.0100877	0.000478953	0	9.29677e-06	0.045309	0.0141894	0.0474789	17.389	482159	1.53961e+06	1.61334e+06	-72.611	0.0000000E+000	0.0000000E+000	0.0000000E+000	72.611	0.0000000E+000	0.0000000E+000	0.0000000E+000	-72.611	0.0000000E+000	0.0000000E+000	0.0000000E+000	-17.389	0.0000000E+000	0.0000000E+000	0.0000000E+000	17.389	3.19316	72.611	6.03235e-06
2.16533	20.6593	12.9555	24.3855	-32.0919	216.535	0.450293	-0.000928425	5673.4	1601.36	1	11	0.0100957	0.000414004	0	-2.08154e-06	0.0347419	0.0217867	0.041008	32.0919	1.60136e+06	2.55358e+06	3.01416e+06	-57.9081	0.0000000E+000	0.0000000E+000	0.0000000E+000	57.9081	0.0000000E+000	0.0000000E+000	0.0000000E+000	-57.9081	0.0000000E+000	0.0000000E+000	0.0000000E+000	-32.0919	0.0000000E+000	0.0000000E+000	0.0000000E+000	32.0919	1.59464	57.9081	-8.68654e-06
1.00006	21.4583	27.4562	34.8468	-51.9907	221.195	0.450298	0.000756612	5796.32	3598.38	1	12	0.0100983	0.000289791	0	9.34244e-06	0.0176713	0.0226107	0.028697	51.9907	3.59838e+06	2.8123e+06	4.56698e+06	-38.0093	0.0000000E+000	0.0000000E+000	0.0000000E+000	38.0093	0.0000000E+000	0.0000000E+000	0.0000000E+000	-38.0093	0.0000000E+000	0.0000000E+000	0.0000000E+000	-51.9907	0.0000000E+000	0.0000000E+000	0.0000000E+000	51.9907	0.781547	38.0093	1.17951e-05