File: ACS_Catal_2026/Figures_Na_K/main_figures/data/EC/20240401_2-128_CV_cycles_alpha_gamma/alpha/20240328_2-128_007_alpha_Na-2_02_PEIS_C01.mpt
EC-Lab ASCII FILE
Nb header lines : 63

Potentio Electrochemical Impedance Spectroscopy

Run on channel : 1 (SN 66412)
User :
CE vs. WE compliance from -10 V to 10 V
Electrode connection : standard
Potential control : Ewe
Ewe ctrl range : min = -1.00 V, max = 1.00 V
Safety Limits :
	Do not start on E overload
Acquisition started on : 04/01/2024 20:30:54.900
Loaded Setting File :  C:\Users\NakamuraT\Documents\EC-Lab\Data\Yatsuzuka\20240328_2-129_UV-vis_K_Na_diff\20240328_2-129_001_preconditioning+CV_inK.mps
Saved on :
	File : 20240328_2-128_007_alpha_Na-2_02_PEIS_C01.mpr
	Directory : C:\Users\NakamuraT\Documents\EC-Lab\Data\Yatsuzuka\20240401_2-128_CV_cycles_alpha_gamma\
	Host : 192.109.209.100
Device : SP-150e (SN .003411)
Address : 192.109.209.236
EC-Lab for windows v11.50 (software)
Internet server v11.50 (firmware)
Command interpretor v11.50 (firmware)
Electrode material :
Initial state :
Electrolyte :
Comments :
Electrode surface area : 0.001 cm2
Characteristic mass : 0.001 g
Equivalent Weight : 0.000 g/eq.
Density : 0.000 g/cm3
Volume (V) : 0.001 cm3
Cycle Definition : Charge/Discharge alternance
Mode                Single sine
E (V)               0.4500
vs.                 Ref
tE (h:m:s)          0:00:0.0000
record              0
dI                  0.000
unit dI             mA
dt (s)              0.000
fi                  500.000
unit fi             kHz
ff                  1.000
unit ff             Hz
Nd                  6
Points              per decade
spacing             Logarithmic
Va (mV)             10.0
pw                  0.10
Na                  2
corr                0
E range min (V)     -1.000
E range max (V)     1.000
I Range             Auto
Bandwidth           5
nc cycles           0
goto Ns'            0
nr cycles           0
inc. cycle          0

freq/Hz	Re(Z)/Ohm	-Im(Z)/Ohm	|Z|/Ohm	Phase(Z)/deg	time/s	<Ewe>/V	<I>/mA	Cs/uF	Cp/uF	cycle number	I Range	|Ewe|/V	|I|/A	Ns	(Q-Qo)/mA.h	Re(Y)/Ohm-1	Im(Y)/Ohm-1	|Y|/Ohm-1	Phase(Y)/deg	Re(C)/nF	Im(C)/nF	|C|/nF	Phase(C)/deg	Re(M)	Im(M)	|M|	Phase(M)/deg	Re(Permittivity)	Im(Permittivity)	|Permittivity|	Phase(Permittivity)/deg	Re(Resistivity)/Ohm.cm	Im(Resistivity)/Ohm.cm	|Resistivity|/Ohm.cm	Phase(Resistivity)/deg	Re(Conductivity)/mS/cm	Im(Conductivity)/mS/cm	|Conductivity|/mS/cm	Phase(Conductivity)/deg	Tan(Delta)	Loss Angle(Delta)/deg	dq/mA.h
500019	30.9087	22.6769	38.3353	-36.2665	200.665	0.450438	0.0855754	0.0140362	0.00491158	1	11	0.00859437	0.00022419	0	4.19127e-05	0.0210322	0.0154308	0.0260856	36.2665	4.91158	6.6945	8.30301	-53.7335	0.0000000E+000	0.0000000E+000	0.0000000E+000	53.7335	0.0000000E+000	0.0000000E+000	0.0000000E+000	-53.7335	0.0000000E+000	0.0000000E+000	0.0000000E+000	-36.2665	0.0000000E+000	0.0000000E+000	0.0000000E+000	36.2665	1.363	53.7335	4.19127e-05
231063	27.2756	-3.14788	27.4567	6.58338	201.949	0.450264	-0.00548759	-0.218812	-0.00287616	1	10	0.00987468	0.000359646	0	4.61209e-05	0.0361808	-0.00417563	0.036421	-6.58338	-2.87616	24.9212	25.0866	-96.5834	0.0000000E+000	0.0000000E+000	0.0000000E+000	96.5834	0.0000000E+000	0.0000000E+000	0.0000000E+000	-96.5834	0.0000000E+000	0.0000000E+000	0.0000000E+000	6.58338	0.0000000E+000	0.0000000E+000	0.0000000E+000	-6.58338	8.66476	83.4166	5.24586e-07
106786	18.5491	-1.8834	18.6445	5.79771	202.793	0.450276	-0.0103688	-0.791336	-0.00807508	1	10	0.0105078	0.000563586	0	4.30732e-05	0.0533608	-0.00541804	0.0536351	-5.79771	-8.07508	79.5292	79.9381	-95.7977	0.0000000E+000	0.0000000E+000	0.0000000E+000	95.7977	0.0000000E+000	0.0000000E+000	0.0000000E+000	-95.7977	0.0000000E+000	0.0000000E+000	0.0000000E+000	5.79771	0.0000000E+000	0.0000000E+000	0.0000000E+000	-5.79771	9.84873	84.2023	-9.32324e-07
49352.4	17.4869	-0.855641	17.5078	2.80127	203.637	0.450279	-0.013289	-3.76895	-0.00900202	1	10	0.0104216	0.000595253	0	3.9327e-05	0.0570491	-0.00279144	0.0571174	-2.80127	-9.00201	183.976	184.196	-92.8013	0.0000000E+000	0.0000000E+000	0.0000000E+000	92.8013	0.0000000E+000	0.0000000E+000	0.0000000E+000	-92.8013	0.0000000E+000	0.0000000E+000	0.0000000E+000	2.80127	0.0000000E+000	0.0000000E+000	0.0000000E+000	-2.80127	20.4372	87.1987	-2.08971e-06
22806.6	17.2185	-0.388387	17.2229	1.29217	204.481	0.450283	-0.0132013	-17.9678	-0.00913723	1	10	0.0103916	0.000603359	0	3.69377e-05	0.0580476	-0.00130935	0.0580624	-1.29217	-9.13723	405.083	405.186	-91.2922	0.0000000E+000	0.0000000E+000	0.0000000E+000	91.2922	0.0000000E+000	0.0000000E+000	0.0000000E+000	-91.2922	0.0000000E+000	0.0000000E+000	0.0000000E+000	1.29217	0.0000000E+000	0.0000000E+000	0.0000000E+000	-1.29217	44.3333	88.7078	-1.74166e-06
10540.4	17.165	-0.175102	17.1659	0.584459	205.325	0.45028	-0.0154236	-86.2329	-0.00897266	1	10	0.0101858	0.000593374	0	3.35679e-05	0.058252	-0.000594234	0.058255	-0.584459	-8.97263	879.578	879.624	-90.5845	0.0000000E+000	0.0000000E+000	0.0000000E+000	90.5845	0.0000000E+000	0.0000000E+000	0.0000000E+000	-90.5845	0.0000000E+000	0.0000000E+000	0.0000000E+000	0.584459	0.0000000E+000	0.0000000E+000	0.0000000E+000	-0.584459	98.0287	89.4155	-1.48787e-06
4871.56	17.1675	-0.0797544	17.1677	0.266175	206.316	0.450293	-0.0159815	-409.635	-0.00884061	1	10	0.0104939	0.00061126	0	3.06998e-05	0.0582483	-0.000270602	0.0582489	-0.266175	-8.8406	1902.98	1903.01	-90.2662	0.0000000E+000	0.0000000E+000	0.0000000E+000	90.2662	0.0000000E+000	0.0000000E+000	0.0000000E+000	-90.2662	0.0000000E+000	0.0000000E+000	0.0000000E+000	0.266175	0.0000000E+000	0.0000000E+000	0.0000000E+000	-0.266175	215.255	89.7338	-1.51674e-06
2250.72	17.146	0.00138581	17.146	-0.00463087	207.247	0.450283	-0.0166588	51026.5	0.000333331	1	10	0.0107991	0.000629834	0	2.66116e-05	0.0583227	4.71386e-06	0.0583227	0.00463087	0.333344	4124.16	4124.16	-89.9954	0.0000000E+000	0.0000000E+000	0.0000000E+000	89.9954	0.0000000E+000	0.0000000E+000	0.0000000E+000	-89.9954	0.0000000E+000	0.0000000E+000	0.0000000E+000	-0.00463087	0.0000000E+000	0.0000000E+000	0.0000000E+000	0.00463087	12372.6	89.9954	-1.6152e-06
1040.33	17.1731	0.0365994	17.1732	-0.122108	208.177	0.450287	-0.0166663	4179.98	0.0189854	1	10	0.0108876	0.00063399	0	2.20953e-05	0.0582302	0.0001241	0.0582303	0.122108	18.9854	8908.32	8908.34	-89.8779	0.0000000E+000	0.0000000E+000	0.0000000E+000	89.8779	0.0000000E+000	0.0000000E+000	0.0000000E+000	-89.8779	0.0000000E+000	0.0000000E+000	0.0000000E+000	-0.122108	0.0000000E+000	0.0000000E+000	0.0000000E+000	0.122108	469.22	89.8779	-2.76602e-06
480.769	17.18	0.068553	17.1802	-0.228624	209.106	0.450294	-0.0179668	4829	0.0768873	1	10	0.010909	0.000634977	0	1.82494e-05	0.0582062	0.000232258	0.0582066	0.228624	76.8867	19268.7	19268.9	-89.7714	0.0000000E+000	0.0000000E+000	0.0000000E+000	89.7714	0.0000000E+000	0.0000000E+000	0.0000000E+000	-89.7714	0.0000000E+000	0.0000000E+000	0.0000000E+000	-0.228624	0.0000000E+000	0.0000000E+000	0.0000000E+000	0.228624	250.61	89.7714	-1.98242e-06
222.061	17.1791	0.160709	17.1799	-0.53598	210.031	0.45029	-0.0180284	4459.73	0.390254	1	10	0.0109154	0.000635362	0	1.36741e-05	0.058205	0.000544502	0.0582076	0.53598	390.254	41716.6	41718.4	-89.464	0.0000000E+000	0.0000000E+000	0.0000000E+000	89.464	0.0000000E+000	0.0000000E+000	0.0000000E+000	-89.464	0.0000000E+000	0.0000000E+000	0.0000000E+000	-0.53598	0.0000000E+000	0.0000000E+000	0.0000000E+000	0.53598	106.896	89.464	-2.4987e-06
102.667	17.1989	0.332954	17.2022	-1.10905	210.969	0.450292	-0.0182225	4655.89	1.74424	1	10	0.0109206	0.00063484	0	9.1015e-06	0.0581213	0.00112517	0.0581322	1.10905	1744.23	90099.7	90116.6	-88.891	0.0000000E+000	0.0000000E+000	0.0000000E+000	88.891	0.0000000E+000	0.0000000E+000	0.0000000E+000	-88.891	0.0000000E+000	0.0000000E+000	0.0000000E+000	-1.10905	0.0000000E+000	0.0000000E+000	0.0000000E+000	1.10905	51.6556	88.891	-2.47813e-06
47.4443	17.2475	0.679958	17.2609	-2.25764	211.88	0.450283	-0.0187729	4933.49	7.65582	1	10	0.0109265	0.000633022	0	3.94566e-06	0.0578895	0.00228221	0.0579345	2.25764	7655.82	194194	194345	-87.7424	0.0000000E+000	0.0000000E+000	0.0000000E+000	87.7424	0.0000000E+000	0.0000000E+000	0.0000000E+000	-87.7424	0.0000000E+000	0.0000000E+000	0.0000000E+000	-2.25764	0.0000000E+000	0.0000000E+000	0.0000000E+000	2.25764	25.3655	87.7424	-2.46595e-06
21.9144	17.2837	1.37748	17.3385	-4.55674	212.986	0.450273	-0.00110585	5272.35	33.2776	1	11	0.0109292	0.000630344	0	9.36759e-07	0.0574928	0.00458207	0.0576751	4.55674	33277.6	417545	418869	-85.4433	0.0000000E+000	0.0000000E+000	0.0000000E+000	85.4433	0.0000000E+000	0.0000000E+000	0.0000000E+000	-85.4433	0.0000000E+000	0.0000000E+000	0.0000000E+000	-4.55674	0.0000000E+000	0.0000000E+000	0.0000000E+000	4.55674	12.5473	85.4433	-1.59084e-06
10.1329	17.3703	2.91102	17.6125	-9.51358	213.913	0.450267	-0.00294642	5395.59	147.396	1	11	0.0109391	0.000621096	0	4.55282e-06	0.0559969	0.00938431	0.0567778	9.51358	147396	879525	891790	-80.4864	0.0000000E+000	0.0000000E+000	0.0000000E+000	80.4864	0.0000000E+000	0.0000000E+000	0.0000000E+000	-80.4864	0.0000000E+000	0.0000000E+000	0.0000000E+000	-9.51358	0.0000000E+000	0.0000000E+000	0.0000000E+000	9.51358	5.96707	80.4864	3.75818e-06
4.68375	17.5253	6.093	18.5543	-19.1709	214.763	0.450288	-0.00176128	5576.93	601.406	1	11	0.0109505	0.000590186	0	7.23389e-06	0.050907	0.0176987	0.0538959	19.1709	601406	1.72983e+06	1.83139e+06	-70.8291	0.0000000E+000	0.0000000E+000	0.0000000E+000	70.8291	0.0000000E+000	0.0000000E+000	0.0000000E+000	-70.8291	0.0000000E+000	0.0000000E+000	0.0000000E+000	-19.1709	0.0000000E+000	0.0000000E+000	0.0000000E+000	19.1709	2.87631	70.8291	7.4559e-06
2.16533	18.0627	12.5773	22.0102	-34.85	216.476	0.450299	-0.00107811	5843.98	1908.25	1	11	0.0109526	0.000497614	0	-6.83854e-06	0.037285	0.025962	0.0454334	34.85	1.90825e+06	2.7405e+06	3.33943e+06	-55.15	0.0000000E+000	0.0000000E+000	0.0000000E+000	55.15	0.0000000E+000	0.0000000E+000	0.0000000E+000	-55.15	0.0000000E+000	0.0000000E+000	0.0000000E+000	-34.85	0.0000000E+000	0.0000000E+000	0.0000000E+000	34.85	1.43613	55.15	-1.02239e-05
1.00006	18.7837	26.7409	32.6788	-54.9146	221.136	0.450297	0.00071051	5951.36	3985.08	1	12	0.0109574	0.000335306	0	8.06034e-06	0.0175893	0.0250406	0.0306009	54.9146	3.98508e+06	2.79925e+06	4.86997e+06	-35.0854	0.0000000E+000	0.0000000E+000	0.0000000E+000	35.0854	0.0000000E+000	0.0000000E+000	0.0000000E+000	-35.0854	0.0000000E+000	0.0000000E+000	0.0000000E+000	-54.9146	0.0000000E+000	0.0000000E+000	0.0000000E+000	54.9146	0.702432	35.0854	1.40696e-05