File: ACS_Catal_2026/Figures_Na_K/main_figures/data/EC/20240401_2-128_CV_cycles_alpha_gamma/alpha/20240328_2-128_003_alpha_Na-1_02_PEIS_C01.mpt
EC-Lab ASCII FILE
Nb header lines : 63

Potentio Electrochemical Impedance Spectroscopy

Run on channel : 1 (SN 66412)
User :
CE vs. WE compliance from -10 V to 10 V
Electrode connection : standard
Potential control : Ewe
Ewe ctrl range : min = -1.00 V, max = 1.00 V
Safety Limits :
	Do not start on E overload
Acquisition started on : 04/01/2024 19:24:04.746
Loaded Setting File :  C:\Users\NakamuraT\Documents\EC-Lab\Data\Yatsuzuka\20240328_2-129_UV-vis_K_Na_diff\20240328_2-129_001_preconditioning+CV_inK.mps
Saved on :
	File : 20240328_2-128_003_alpha_Na-1_02_PEIS_C01.mpr
	Directory : C:\Users\NakamuraT\Documents\EC-Lab\Data\Yatsuzuka\20240401_2-128_CV_cycles_alpha_gamma\
	Host : 192.109.209.100
Device : SP-150e (SN .003411)
Address : 192.109.209.236
EC-Lab for windows v11.50 (software)
Internet server v11.50 (firmware)
Command interpretor v11.50 (firmware)
Electrode material :
Initial state :
Electrolyte :
Comments :
Electrode surface area : 0.001 cm2
Characteristic mass : 0.001 g
Equivalent Weight : 0.000 g/eq.
Density : 0.000 g/cm3
Volume (V) : 0.001 cm3
Cycle Definition : Charge/Discharge alternance
Mode                Single sine
E (V)               0.4500
vs.                 Ref
tE (h:m:s)          0:00:0.0000
record              0
dI                  0.000
unit dI             mA
dt (s)              0.000
fi                  500.000
unit fi             kHz
ff                  1.000
unit ff             Hz
Nd                  6
Points              per decade
spacing             Logarithmic
Va (mV)             10.0
pw                  0.10
Na                  2
corr                0
E range min (V)     -1.000
E range max (V)     1.000
I Range             Auto
Bandwidth           5
nc cycles           0
goto Ns'            0
nr cycles           0
inc. cycle          0

freq/Hz	Re(Z)/Ohm	-Im(Z)/Ohm	|Z|/Ohm	Phase(Z)/deg	time/s	<Ewe>/V	<I>/mA	Cs/uF	Cp/uF	cycle number	I Range	|Ewe|/V	|I|/A	Ns	(Q-Qo)/mA.h	Re(Y)/Ohm-1	Im(Y)/Ohm-1	|Y|/Ohm-1	Phase(Y)/deg	Re(C)/nF	Im(C)/nF	|C|/nF	Phase(C)/deg	Re(M)	Im(M)	|M|	Phase(M)/deg	Re(Permittivity)	Im(Permittivity)	|Permittivity|	Phase(Permittivity)/deg	Re(Resistivity)/Ohm.cm	Im(Resistivity)/Ohm.cm	|Resistivity|/Ohm.cm	Phase(Resistivity)/deg	Re(Conductivity)/mS/cm	Im(Conductivity)/mS/cm	|Conductivity|/mS/cm	Phase(Conductivity)/deg	Tan(Delta)	Loss Angle(Delta)/deg	dq/mA.h
500019	36.3771	-4.38351	36.6402	6.87113	200.716	0.450448	0.127293	-0.0726126	-0.0010393	1	11	0.00776325	0.000211878	0	5.67136e-05	0.0270964	-0.00326517	0.0272924	-6.87113	-1.0393	8.62473	8.68712	-96.8711	0.0000000E+000	0.0000000E+000	0.0000000E+000	96.8711	0.0000000E+000	0.0000000E+000	0.0000000E+000	-96.8711	0.0000000E+000	0.0000000E+000	0.0000000E+000	6.87113	0.0000000E+000	0.0000000E+000	0.0000000E+000	-6.87113	8.29861	83.1289	5.67136e-05
231063	22.1114	-3.3141	22.3584	8.52414	201.864	0.450276	-0.00492781	-0.207838	-0.0045664	1	10	0.0106511	0.00047638	0	6.15719e-05	0.0442318	-0.00662954	0.0447259	-8.52414	-4.5664	30.4667	30.807	-98.5241	0.0000000E+000	0.0000000E+000	0.0000000E+000	98.5241	0.0000000E+000	0.0000000E+000	0.0000000E+000	-98.5241	0.0000000E+000	0.0000000E+000	0.0000000E+000	8.52414	0.0000000E+000	0.0000000E+000	0.0000000E+000	-8.52414	6.67193	81.4759	8.10134e-07
106786	20.3315	-1.13992	20.3634	3.20905	202.709	0.45029	-0.0104379	-1.30746	-0.00409714	1	10	0.0106584	0.000523411	0	5.80137e-05	0.0490307	-0.00274901	0.0491077	-3.20905	-4.09714	73.0757	73.1905	-93.209	0.0000000E+000	0.0000000E+000	0.0000000E+000	93.209	0.0000000E+000	0.0000000E+000	0.0000000E+000	-93.209	0.0000000E+000	0.0000000E+000	0.0000000E+000	3.20905	0.0000000E+000	0.0000000E+000	0.0000000E+000	-3.20905	17.8358	86.791	-1.69592e-06
49352.4	20.0903	-0.454829	20.0955	1.29691	203.553	0.45029	-0.012384	-7.09028	-0.00363215	1	10	0.0105015	0.000522578	0	5.52513e-05	0.0497497	-0.00112629	0.0497624	-1.29691	-3.63216	160.436	160.477	-91.2969	0.0000000E+000	0.0000000E+000	0.0000000E+000	91.2969	0.0000000E+000	0.0000000E+000	0.0000000E+000	-91.2969	0.0000000E+000	0.0000000E+000	0.0000000E+000	1.29691	0.0000000E+000	0.0000000E+000	0.0000000E+000	-1.29691	44.1712	88.7031	-1.22137e-06
22806.6	19.9359	-0.210683	19.937	0.60548	204.397	0.450294	-0.0130016	-33.1231	-0.00369887	1	10	0.0103822	0.000520747	0	5.1985e-05	0.0501551	-0.00053004	0.0501579	-0.60548	-3.69889	350.006	350.026	-90.6055	0.0000000E+000	0.0000000E+000	0.0000000E+000	90.6055	0.0000000E+000	0.0000000E+000	0.0000000E+000	-90.6055	0.0000000E+000	0.0000000E+000	0.0000000E+000	0.60548	0.0000000E+000	0.0000000E+000	0.0000000E+000	-0.60548	94.6251	89.3945	-1.92153e-06
10540.4	20.0103	-0.0955955	20.0105	0.273718	205.241	0.450301	-0.0144664	-157.953	-0.00360483	1	10	0.0101926	0.000509363	0	4.85488e-05	0.0499732	-0.000238738	0.0499738	-0.273718	-3.60485	754.572	754.581	-90.2737	0.0000000E+000	0.0000000E+000	0.0000000E+000	90.2737	0.0000000E+000	0.0000000E+000	0.0000000E+000	-90.2737	0.0000000E+000	0.0000000E+000	0.0000000E+000	0.273718	0.0000000E+000	0.0000000E+000	0.0000000E+000	-0.273718	209.322	89.7263	-1.53361e-06
4871.56	20.0256	-0.0337866	20.0256	0.0966677	206.288	0.450309	-0.0158527	-966.959	-0.00275248	1	10	0.0101419	0.000506448	0	4.48681e-05	0.049936	-8.42505e-05	0.049936	-0.0966677	-2.75239	1631.42	1631.42	-90.0967	0.0000000E+000	0.0000000E+000	0.0000000E+000	90.0967	0.0000000E+000	0.0000000E+000	0.0000000E+000	-90.0967	0.0000000E+000	0.0000000E+000	0.0000000E+000	0.0966677	0.0000000E+000	0.0000000E+000	0.0000000E+000	-0.0966677	592.708	89.9033	-2.05685e-06
2250.72	20.035	0.00366673	20.035	-0.010486	207.218	0.450312	-0.0174145	19285	0.000645949	1	10	0.0104405	0.000521114	0	4.02917e-05	0.0499127	9.13482e-06	0.0499127	0.010486	0.645748	3529.47	3529.47	-89.9895	0.0000000E+000	0.0000000E+000	0.0000000E+000	89.9895	0.0000000E+000	0.0000000E+000	0.0000000E+000	-89.9895	0.0000000E+000	0.0000000E+000	0.0000000E+000	-0.010486	0.0000000E+000	0.0000000E+000	0.0000000E+000	0.010486	5464	89.9895	-2.44013e-06
1040.33	20.0107	0.0266778	20.0107	-0.0763854	208.148	0.450316	-0.0174388	5734.52	0.0101923	1	10	0.0105136	0.0005254	0	3.61291e-05	0.0499731	6.66231e-05	0.0499732	0.0763854	10.1923	7645.12	7645.13	-89.9236	0.0000000E+000	0.0000000E+000	0.0000000E+000	89.9236	0.0000000E+000	0.0000000E+000	0.0000000E+000	-89.9236	0.0000000E+000	0.0000000E+000	0.0000000E+000	-0.0763854	0.0000000E+000	0.0000000E+000	0.0000000E+000	0.0763854	750.087	89.9236	-1.83456e-06
480.769	20.0661	0.0826337	20.0662	-0.235947	209.078	0.450317	-0.0180116	4006.14	0.0679373	1	10	0.0105451	0.000525516	0	3.13639e-05	0.0498345	0.000205222	0.0498349	0.235947	67.9372	16497.3	16497.5	-89.7641	0.0000000E+000	0.0000000E+000	0.0000000E+000	89.7641	0.0000000E+000	0.0000000E+000	0.0000000E+000	-89.7641	0.0000000E+000	0.0000000E+000	0.0000000E+000	-0.235947	0.0000000E+000	0.0000000E+000	0.0000000E+000	0.235947	242.832	89.7641	-2.45607e-06
222.061	19.9581	0.164846	19.9588	-0.47323	210.002	0.450307	-0.0184893	4347.8	0.296592	1	10	0.0105466	0.000528421	0	2.65421e-05	0.0501016	0.000413819	0.0501033	0.47323	296.591	35908.7	35909.9	-89.5268	0.0000000E+000	0.0000000E+000	0.0000000E+000	89.5268	0.0000000E+000	0.0000000E+000	0.0000000E+000	-89.5268	0.0000000E+000	0.0000000E+000	0.0000000E+000	-0.47323	0.0000000E+000	0.0000000E+000	0.0000000E+000	0.47323	121.071	89.5268	-2.60972e-06
102.667	19.9983	0.283296	20.0003	-0.8116	210.939	0.45032	-0.0182542	5472.02	1.09788	1	10	0.0105546	0.000527721	0	2.23487e-05	0.0499943	0.000708222	0.0499994	0.8116	1097.88	77501.2	77509	-89.1884	0.0000000E+000	0.0000000E+000	0.0000000E+000	89.1884	0.0000000E+000	0.0000000E+000	0.0000000E+000	-89.1884	0.0000000E+000	0.0000000E+000	0.0000000E+000	-0.8116	0.0000000E+000	0.0000000E+000	0.0000000E+000	0.8116	70.5914	89.1884	-1.99053e-06
47.4443	20.1602	0.635689	20.1702	-1.80605	212.094	0.450298	-0.0012422	5277.05	5.24156	1	11	0.010557	0.000523394	0	1.8686e-05	0.0495535	0.00156252	0.0495781	1.80605	5241.55	166230	166313	-88.194	0.0000000E+000	0.0000000E+000	0.0000000E+000	88.194	0.0000000E+000	0.0000000E+000	0.0000000E+000	-88.194	0.0000000E+000	0.0000000E+000	0.0000000E+000	-1.80605	0.0000000E+000	0.0000000E+000	0.0000000E+000	1.80605	31.7139	88.194	-1.4336e-06
21.9144	20.1089	1.24776	20.1476	-3.55067	212.962	0.450297	-0.000741019	5820.46	22.3242	1	11	0.0105655	0.000524406	0	1.72262e-05	0.0495385	0.00307388	0.0496338	3.55067	22324.2	359776	360468	-86.4493	0.0000000E+000	0.0000000E+000	0.0000000E+000	86.4493	0.0000000E+000	0.0000000E+000	0.0000000E+000	-86.4493	0.0000000E+000	0.0000000E+000	0.0000000E+000	-3.55067	0.0000000E+000	0.0000000E+000	0.0000000E+000	3.55067	16.1159	86.4493	-1.53401e-06
10.1329	20.1579	2.69531	20.3373	-7.61584	213.889	0.450319	-0.0024264	5827.4	102.354	1	11	0.0105772	0.000520088	0	1.90487e-05	0.0487369	0.0065166	0.0491707	7.61584	102354	765495	772308	-82.3842	0.0000000E+000	0.0000000E+000	0.0000000E+000	82.3842	0.0000000E+000	0.0000000E+000	0.0000000E+000	-82.3842	0.0000000E+000	0.0000000E+000	0.0000000E+000	-7.61584	0.0000000E+000	0.0000000E+000	0.0000000E+000	7.61584	7.47888	82.3842	2.34764e-06
4.68375	20.3686	5.56512	21.1152	-15.2814	214.739	0.450328	-0.000328068	6105.93	424.141	1	11	0.0105727	0.000500714	0	2.23644e-05	0.0456848	0.012482	0.0473593	15.2814	424141	1.55238e+06	1.60928e+06	-74.7186	0.0000000E+000	0.0000000E+000	0.0000000E+000	74.7186	0.0000000E+000	0.0000000E+000	0.0000000E+000	-74.7186	0.0000000E+000	0.0000000E+000	0.0000000E+000	-15.2814	0.0000000E+000	0.0000000E+000	0.0000000E+000	15.2814	3.66005	74.7186	5.3446e-06
2.16533	20.8463	11.7252	23.9175	-29.356	216.454	0.450348	-0.00141323	6268.68	1506.55	1	11	0.0105844	0.000442539	0	9.47333e-06	0.0364415	0.0204969	0.0418103	29.356	1.50655e+06	2.67851e+06	3.07313e+06	-60.644	0.0000000E+000	0.0000000E+000	0.0000000E+000	60.644	0.0000000E+000	0.0000000E+000	0.0000000E+000	-60.644	0.0000000E+000	0.0000000E+000	0.0000000E+000	-29.356	0.0000000E+000	0.0000000E+000	0.0000000E+000	29.356	1.7779	60.644	-6.78203e-06
1.00006	21.4314	24.9627	32.9005	-49.3527	221.113	0.450345	0.00102487	6375.29	3670.11	1	12	0.0105877	0.000321808	0	2.80436e-05	0.0197991	0.0230614	0.0303947	49.3527	3.67011e+06	3.15092e+06	4.83715e+06	-40.6473	0.0000000E+000	0.0000000E+000	0.0000000E+000	40.6473	0.0000000E+000	0.0000000E+000	0.0000000E+000	-40.6473	0.0000000E+000	0.0000000E+000	0.0000000E+000	-49.3527	0.0000000E+000	0.0000000E+000	0.0000000E+000	49.3527	0.858537	40.6473	1.33577e-05