File: ACS_Catal_2026/Figures_Na_K/main_figures/data/EC/20240401_2-128_CV_cycles_alpha_gamma/alpha/20240328_2-128_007_alpha_Na-2_03_CVA_C01.mpt
EC-Lab ASCII FILE
Nb header lines : 66

Cyclic Voltammetry Advanced

Run on channel : 1 (SN 66412)
User :
CE vs. WE compliance from -10 V to 10 V
Electrode connection : standard
Potential control : Ewe
Ewe ctrl range : min = -1.00 V, max = 1.00 V
Safety Limits :
	Do not start on E overload
Acquisition started on : 04/01/2024 20:30:54.900
Loaded Setting File :  C:\Users\NakamuraT\Documents\EC-Lab\Data\Yatsuzuka\20240328_2-129_UV-vis_K_Na_diff\20240328_2-129_001_preconditioning+CV_inK.mps
Saved on :
	File : 20240328_2-128_007_alpha_Na-2_03_CVA_C01.mpr
	Directory : C:\Users\NakamuraT\Documents\EC-Lab\Data\Yatsuzuka\20240401_2-128_CV_cycles_alpha_gamma\
	Host : 192.109.209.100
Device : SP-150e (SN .003411)
Address : 192.109.209.236
EC-Lab for windows v11.50 (software)
Internet server v11.50 (firmware)
Command interpretor v11.50 (firmware)
Electrode material :
Initial state :
Electrolyte :
Comments :
Electrode surface area : 0.001 cm2
Characteristic mass : 0.001 g
Equivalent Weight : 0.000 g/eq.
Density : 0.000 g/cm3
Volume (V) : 0.001 cm3
Cycle Definition : Charge/Discharge alternance
Ei (V)              0.450
vs.                 Ref
ti (h:m:s)          0:00:10.0000
dti (s)             0.0000
dE/dt               5.000
dE/dt unit          mV/s
E1 (V)              0.700
vs.                 Ref
t1 (h:m:s)          0:00:0.0000
dt1 (s)             0.1000
Step percent        50
N                   10
E range min (V)     -1.000
E range max (V)     1.000
I Range             10 mA
I Range min         Unset
I Range max         Unset
I Range init        Unset
Bandwidth           5
E2 (V)              0.450
vs.                 Ref
t2 (h:m:s)          0:00:0.0000
dt2 (s)             0.1000
nc cycles           14
nr                  1
Reverse Scan        0
Ef (V)              0.000
vs.                 Eoc
tf (h:m:s)          0:00:0.0000
dtf (s)             0.1000

mode	ox/red	error	control changes	Ns changes	counter inc.	time/s	control/V	Ewe/V	<I>/mA	cycle number	(Q-Qo)/C	I Range	Ns	step time/s	P/W
2	0	0	0	0	0	231.256	0.449935	0.450036	-0.0040193	1	0.0000000E+000	11	0	0.000000000000000E+000	-1.80883e-06
2	1	0	1	0	0	243.913	0.51322	0.513481	0.0322346	1	0.000397657	11	0	12.6021	1.65519e-05
2	1	0	0	0	0	256.616	0.576732	0.577024	0.0423031	1	0.000842284	11	0	25.3044	2.44099e-05
2	1	0	1	0	0	269.318	0.640243	0.640585	0.172129	1	0.00188622	11	0	38.0066	0.000110263
2	1	0	0	0	0	281.829	0.697153	0.697439	0.940811	1	0.00846162	11	0	50.518	0.000656159
2	1	0	1	0	0	294.532	0.633641	0.633917	0.0832032	1	0.0135631	11	0	63.2203	5.2744e-05
2	0	0	1	0	0	307.234	0.570131	0.570427	-0.0231705	1	0.0136869	11	0	6.3012	-1.32171e-05
2	0	0	0	0	0	319.936	0.50662	0.506907	-0.0342987	1	0.0133019	11	0	19.0034	-1.73863e-05
2	1	0	0	0	1	332.51	0.456261	0.456543	0.0253867	2	0.01291	11	0	1.0002	1.15901e-05
2	1	0	1	0	1	345.213	0.519772	0.520109	0.0294787	2	0.0132779	11	0	13.7024	1.53321e-05
2	1	0	0	0	1	357.915	0.583283	0.583583	0.039936	2	0.0136937	11	0	26.4046	2.33059e-05
2	1	0	1	0	1	370.617	0.646794	0.647096	0.202224	2	0.0148462	11	0	39.1068	0.000130858
2	1	0	1	0	1	383.119	0.690652	0.690956	0.772306	2	0.0221055	11	0	51.6084	0.00053363
2	1	0	0	0	1	395.821	0.627141	0.627418	0.0532798	2	0.0260701	11	0	64.3106	3.34287e-05
2	0	0	1	0	1	408.523	0.563629	0.563952	-0.0252786	2	0.0260587	11	0	7.7014	-1.42559e-05
2	0	0	0	0	1	421.225	0.500118	0.500377	-0.0355796	2	0.0256607	11	0	20.4036	-1.78032e-05
2	1	0	0	0	0	433.799	0.462762	0.463033	0.0283696	3	0.0253491	11	0	2.3004	1.31361e-05
2	1	0	1	0	0	446.502	0.526273	0.526517	0.0288344	3	0.0257181	11	0	15.0026	1.51818e-05
2	1	0	0	0	0	459.204	0.589784	0.590103	0.0443773	3	0.0261456	11	0	27.7048	2.61872e-05
2	1	0	1	0	0	471.906	0.653295	0.6536	0.247138	3	0.0275094	11	0	40.407	0.00016153
2	1	0	1	0	0	484.408	0.68415	0.684468	0.628028	3	0.0352722	11	0	52.9086	0.000429865
2	1	0	0	0	0	497.11	0.620639	0.620863	0.0335156	3	0.0383258	11	0	65.6108	2.08086e-05
2	0	0	1	0	0	509.812	0.557128	0.557407	-0.0269553	3	0.0382162	11	0	9.0016	-1.50251e-05
2	0	0	0	0	0	522.514	0.493617	0.493934	-0.035044	3	0.0378079	11	0	21.7038	-1.73094e-05
2	1	0	0	0	1	535.088	0.469263	0.469573	0.0287656	4	0.037579	11	0	3.6006	1.35076e-05
2	1	0	1	0	1	547.791	0.532774	0.53308	0.0291176	4	0.037949	11	0	16.3028	1.5522e-05
2	1	0	0	0	1	560.493	0.596285	0.596551	0.0477288	4	0.0383952	11	0	29.005	2.84727e-05
2	1	0	1	0	1	573.195	0.659796	0.660002	0.30439	4	0.0400339	11	0	41.7072	0.000200898
2	1	0	1	0	1	585.697	0.677649	0.677948	0.504891	4	0.048098	11	0	54.2088	0.00034229
2	1	0	0	0	1	598.399	0.614138	0.614457	0.0179473	4	0.0504069	11	0	66.911	1.10278e-05
2	0	0	1	0	1	611.101	0.550627	0.551006	-0.0294112	4	0.0502264	11	0	10.5018	-1.62057e-05
2	0	0	0	0	1	623.803	0.487116	0.487426	-0.0363081	4	0.0498104	11	0	23.204	-1.76975e-05
2	1	0	0	0	0	636.377	0.475764	0.476085	0.0293827	5	0.0496652	11	0	4.9008	1.39887e-05
2	1	0	1	0	0	649.08	0.539275	0.539575	0.0307931	5	0.0500372	11	0	17.603	1.66152e-05
2	1	0	0	0	0	661.782	0.602786	0.603167	0.0540464	5	0.0505082	11	0	30.3052	3.2599e-05
2	1	0	1	0	0	674.484	0.666297	0.666562	0.373047	5	0.052498	11	0	43.0074	0.000248659
2	1	0	1	0	0	686.986	0.671148	0.671447	0.398656	5	0.0606356	11	0	55.509	0.000267677
2	1	0	0	0	0	699.688	0.607637	0.608006	0.00470842	5	0.0623494	11	0	68.2112	2.86275e-06
2	0	0	1	0	0	712.39	0.544126	0.544438	-0.0289929	5	0.062115	11	0	11.802	-1.57848e-05
2	0	0	0	0	0	725.092	0.480615	0.480912	-0.0356548	5	0.061691	11	0	24.5042	-1.71468e-05
2	1	0	0	0	1	737.666	0.482265	0.482552	0.0288727	6	0.0616308	11	0	6.201	1.39326e-05
2	1	0	1	0	1	750.369	0.545776	0.546084	0.0300658	6	0.0620029	11	0	18.9032	1.64184e-05
2	1	0	0	0	1	763.071	0.609287	0.609581	0.0617674	6	0.0625072	11	0	31.6054	3.76522e-05
2	1	0	1	0	1	775.773	0.672798	0.673146	0.457485	6	0.0649396	11	0	44.3076	0.000307954
2	1	0	1	0	1	788.275	0.664647	0.66496	0.309704	6	0.0729421	11	0	56.8092	0.000205941
2	1	0	0	0	1	800.977	0.601136	0.601438	-0.00362633	6	0.0741771	11	0	0.5	-2.18101e-06
2	0	0	1	0	1	813.679	0.537625	0.537981	-0.0313625	6	0.0739006	11	0	13.2022	-1.68724e-05
2	0	0	0	0	1	826.381	0.474114	0.474382	-0.0370352	6	0.0734713	11	0	25.9044	-1.75689e-05
2	1	0	0	0	0	838.955	0.488766	0.489016	0.0297792	7	0.0734961	11	0	7.5012	1.45625e-05
2	1	0	1	0	0	851.658	0.552277	0.552616	0.0312847	7	0.07387	11	0	20.2034	1.72884e-05
2	1	0	0	0	0	864.36	0.615789	0.616109	0.0731589	7	0.0744182	11	0	32.9056	4.50739e-05
2	1	0	1	0	0	877.062	0.6793	0.679612	0.553415	7	0.0773927	11	0	45.6078	0.000376107
2	1	0	1	0	0	889.564	0.658146	0.658456	0.235917	7	0.0850348	11	0	58.1094	0.000155341
2	0	0	0	0	0	902.266	0.594635	0.594954	-0.0101843	7	0.0858924	11	0	1.8002	-6.05921e-06
2	0	0	1	0	0	914.968	0.531124	0.531488	-0.0323077	7	0.0855842	11	0	14.5024	-1.71712e-05
2	0	0	0	0	0	927.67	0.467613	0.467866	-0.0362795	7	0.0851476	11	0	27.2046	-1.6974e-05
2	1	0	0	0	1	940.244	0.495268	0.495554	0.0289308	8	0.0852578	11	0	8.8014	1.43367e-05
2	1	0	1	0	1	952.947	0.558779	0.558996	0.0312159	8	0.0856337	11	0	21.5037	1.74496e-05
2	1	0	1	0	1	965.649	0.622289	0.622571	0.0862452	8	0.0862403	11	0	34.2059	5.36938e-05
2	1	0	0	0	1	978.351	0.685801	0.686175	0.666235	8	0.0898815	11	0	46.9082	0.000457154
2	1	0	1	0	1	990.853	0.651645	0.651924	0.176359	8	0.0969737	11	0	59.4096	0.000114973
2	0	0	0	0	1	1003.55	0.588134	0.588432	-0.0154806	8	0.0975411	11	0	3.1004	-9.10925e-06
2	0	0	1	0	1	1016.26	0.524623	0.524853	-0.0325064	8	0.097207	11	0	15.8026	-1.70611e-05
2	0	0	1	0	1	1028.96	0.461112	0.461392	-0.0379806	8	0.0967639	11	0	28.5049	-1.7524e-05
2	1	0	1	0	0	1041.53	0.501769	0.502074	0.0282978	9	0.09696	11	0	10.1018	1.42076e-05
2	1	0	0	0	0	1054.24	0.56528	0.565528	0.0325264	9	0.0973392	11	0	22.804	1.83946e-05
2	1	0	1	0	0	1066.94	0.628791	0.629131	0.102977	9	0.0980228	11	0	35.5062	6.47862e-05
2	1	0	0	0	0	1079.64	0.692302	0.692602	0.795758	9	0.102467	11	0	48.2084	0.000551143
2	1	0	1	0	0	1092.14	0.645144	0.645401	0.129581	9	0.108773	11	0	60.7098	8.36317e-05
2	0	0	1	0	0	1104.84	0.581633	0.581988	-0.0196507	9	0.109111	11	0	4.4007	-1.14365e-05
2	0	0	0	0	0	1117.55	0.518122	0.518464	-0.0335711	9	0.108757	11	0	17.103	-1.74054e-05
2	0	0	1	0	0	1130.25	0.454611	0.454851	-0.0376784	9	0.108308	11	0	29.8052	-1.7138e-05
2	1	0	1	0	1	1142.82	0.50827	0.508548	0.029585	10	0.108591	11	0	11.402	1.50454e-05
2	1	0	0	0	1	1155.52	0.571781	0.572152	0.0335218	10	0.108977	11	0	24.1042	1.91796e-05
2	1	0	1	0	1	1168.23	0.635292	0.635606	0.12681	10	0.109762	11	0	36.8064	8.06013e-05
2	1	0	0	0	1	1180.93	0.698803	0.699105	0.938663	10	0.115163	11	0	49.5086	0.000656224
2	1	0	0	0	1	1193.43	0.638643	0.638952	0.092646	10	0.12046	11	0	62.0102	5.91964e-05
2	0	0	1	0	1	1206.13	0.575131	0.575481	-0.0211792	10	0.120626	11	0	5.801	-1.21882e-05
2	0	0	0	0	1	1218.84	0.51162	0.511905	-0.0325018	10	0.120258	11	0	18.5032	-1.66378e-05
2	1	0	0	0	0	1231.41	0.45126	0.451625	0.0151463	11	0.119817	11	0	0.000000000000000E+000	6.84046e-06
2	1	0	1	0	0	1244.11	0.514771	0.515186	0.0298167	11	0.120174	11	0	12.7022	1.53611e-05
2	1	0	0	0	0	1256.81	0.578282	0.578603	0.0366252	11	0.120566	11	0	25.4044	2.11914e-05
2	1	0	1	0	0	1269.52	0.641793	0.642144	0.15573	11	0.121483	11	0	38.1066	0.000100001
2	1	0	1	0	0	1282.02	0.695652	0.695914	0.840066	11	0.127669	11	0	50.6082	0.000584614
2	1	0	0	0	0	1294.72	0.632141	0.632456	0.0625742	11	0.132049	11	0	63.3104	3.95754e-05
2	0	0	1	0	0	1307.42	0.56863	0.568909	-0.0246228	11	0.132082	11	0	7.1012	-1.40081e-05
2	0	0	0	0	0	1320.12	0.505119	0.505433	-0.0345785	11	0.131699	11	0	19.8034	-1.74771e-05
2	1	0	0	0	1	1332.7	0.457761	0.458061	0.0256707	12	0.131334	11	0	1.3002	1.17587e-05
2	1	0	1	0	1	1345.4	0.521272	0.521495	0.0292533	12	0.131698	11	0	14.0024	1.52554e-05
2	1	0	0	0	1	1358.1	0.584783	0.58503	0.0397054	12	0.132102	11	0	26.7046	2.32289e-05
2	1	0	1	0	1	1370.8	0.648294	0.648623	0.19346	12	0.133189	11	0	39.4068	0.000125483
2	1	0	1	0	1	1383.31	0.689151	0.689423	0.692832	12	0.14012	11	0	51.9084	0.000477654
2	1	0	0	0	1	1396.01	0.62564	0.625944	0.0413592	12	0.143551	11	0	64.6106	2.58886e-05
2	0	0	1	0	1	1408.71	0.562129	0.562415	-0.0259838	12	0.143482	11	0	8.4014	-1.46137e-05
2	0	0	0	0	1	1421.41	0.498618	0.498919	-0.0349378	12	0.143091	11	0	21.1036	-1.74312e-05
2	1	0	0	0	0	1433.99	0.464262	0.464554	0.0280261	13	0.142805	11	0	2.6004	1.30196e-05
2	1	0	1	0	0	1446.69	0.527773	0.528066	0.0283731	13	0.143172	11	0	15.3026	1.49829e-05
2	1	0	0	0	0	1459.39	0.591284	0.591637	0.042239	13	0.143591	11	0	28.0048	2.49902e-05
2	1	0	1	0	0	1472.09	0.654795	0.655054	0.24027	13	0.144901	11	0	40.707	0.00015739
2	1	0	1	0	0	1484.6	0.68265	0.682915	0.565212	13	0.152342	11	0	53.2086	0.000385992
2	1	0	0	0	0	1497.3	0.619139	0.619426	0.0230787	13	0.154984	11	0	65.9108	1.42955e-05
2	0	0	1	0	0	1510	0.555628	0.555955	-0.0274981	13	0.154839	11	0	9.8017	-1.52877e-05
2	0	0	0	0	0	1522.7	0.492117	0.492378	-0.035203	13	0.154437	11	0	22.5039	-1.73332e-05
2	1	0	0	0	1	1535.28	0.470763	0.47105	0.0284628	14	0.154233	11	0	3.9006	1.34074e-05
2	1	0	1	0	1	1547.98	0.534274	0.534604	0.0300559	14	0.154601	11	0	16.6028	1.6068e-05
2	1	0	0	0	1	1560.68	0.597785	0.598079	0.0470775	14	0.155038	11	0	29.305	2.81561e-05
2	1	0	1	0	1	1573.38	0.661296	0.661561	0.297739	14	0.156631	11	0	42.0072	0.000196972
2	1	0	1	0	1	1585.88	0.676149	0.676404	0.453393	14	0.164364	11	0	54.5088	0.000306677
2	1	0	0	0	1	1598.59	0.612638	0.612951	0.0114895	14	0.166363	11	0	67.211	7.04249e-06
2	0	0	1	0	1	1611.29	0.549127	0.54939	-0.0275977	14	0.166158	11	0	11.1019	-1.51619e-05
2	0	0	0	0	1	1623.99	0.485616	0.485921	-0.0348048	14	0.165749	11	0	23.8041	-1.69124e-05
2	1	0	0	0	0	1636.57	0.477264	0.477578	0.0288188	15	0.165629	11	0	5.2008	1.37632e-05
2	1	0	1	0	0	1649.27	0.540775	0.541048	0.0291196	15	0.165998	11	0	17.903	1.57551e-05
2	1	0	0	0	0	1661.97	0.604287	0.604711	0.0536045	15	0.166461	11	0	30.6052	3.24152e-05
2	1	0	1	0	0	1674.67	0.667798	0.66808	0.371505	15	0.168416	11	0	43.3075	0.000248195
2	1	0	1	0	0	1687.17	0.669648	0.669987	0.357565	15	0.176216	11	0	55.809	0.000239564
2	1	0	0	0	0	1699.88	0.606137	0.606425	0.00165117	15	0.177686	11	0	68.5112	1.00131e-06
2	0	0	1	0	0	1712.58	0.542626	0.542969	-0.0290688	15	0.177436	11	0	12.4021	-1.57834e-05
2	0	0	0	0	0	1725.28	0.479115	0.479463	-0.035036	15	0.177019	11	0	25.1043	-1.67985e-05
2	0	0	1	0	0	1731.1	0.449985	0.450437	-0.0334564	15	0.176804	11	0	30.9223	-1.507e-05