File: ACS_Catal_2026/Figures_Na_K/main_figures/data/EC/20240401_2-128_CV_cycles_alpha_gamma/alpha/20240328_2-128_001_alpha_K-1_02_PEIS_C01.mpt
EC-Lab ASCII FILE
Nb header lines : 63

Potentio Electrochemical Impedance Spectroscopy

Run on channel : 1 (SN 66412)
User :
CE vs. WE compliance from -10 V to 10 V
Electrode connection : standard
Potential control : Ewe
Ewe ctrl range : min = -1.00 V, max = 1.00 V
Safety Limits :
	Do not start on E overload
Acquisition started on : 04/01/2024 18:50:54.595
Loaded Setting File :  C:\Users\NakamuraT\Documents\EC-Lab\Data\Yatsuzuka\20240328_2-129_UV-vis_K_Na_diff\20240328_2-129_001_preconditioning+CV_inK.mps
Saved on :
	File : 20240328_2-128_001_alpha_K-1_02_PEIS_C01.mpr
	Directory : C:\Users\NakamuraT\Documents\EC-Lab\Data\Yatsuzuka\20240401_2-128_CV_cycles_alpha_gamma\
	Host : 192.109.209.100
Device : SP-150e (SN .003411)
Address : 192.109.209.236
EC-Lab for windows v11.50 (software)
Internet server v11.50 (firmware)
Command interpretor v11.50 (firmware)
Electrode material :
Initial state :
Electrolyte :
Comments :
Electrode surface area : 0.001 cm2
Characteristic mass : 0.001 g
Equivalent Weight : 0.000 g/eq.
Density : 0.000 g/cm3
Volume (V) : 0.001 cm3
Cycle Definition : Charge/Discharge alternance
Mode                Single sine
E (V)               0.4500
vs.                 Ref
tE (h:m:s)          0:00:0.0000
record              0
dI                  0.000
unit dI             mA
dt (s)              0.000
fi                  500.000
unit fi             kHz
ff                  1.000
unit ff             Hz
Nd                  6
Points              per decade
spacing             Logarithmic
Va (mV)             10.0
pw                  0.10
Na                  2
corr                0
E range min (V)     -1.000
E range max (V)     1.000
I Range             Auto
Bandwidth           5
nc cycles           0
goto Ns'            0
nr cycles           0
inc. cycle          0

freq/Hz	Re(Z)/Ohm	-Im(Z)/Ohm	|Z|/Ohm	Phase(Z)/deg	time/s	<Ewe>/V	<I>/mA	Cs/uF	Cp/uF	cycle number	I Range	|Ewe|/V	|I|/A	Ns	(Q-Qo)/mA.h	Re(Y)/Ohm-1	Im(Y)/Ohm-1	|Y|/Ohm-1	Phase(Y)/deg	Re(C)/nF	Im(C)/nF	|C|/nF	Phase(C)/deg	Re(M)	Im(M)	|M|	Phase(M)/deg	Re(Permittivity)	Im(Permittivity)	|Permittivity|	Phase(Permittivity)/deg	Re(Resistivity)/Ohm.cm	Im(Resistivity)/Ohm.cm	|Resistivity|/Ohm.cm	Phase(Resistivity)/deg	Re(Conductivity)/mS/cm	Im(Conductivity)/mS/cm	|Conductivity|/mS/cm	Phase(Conductivity)/deg	Tan(Delta)	Loss Angle(Delta)/deg	dq/mA.h
500019	36.6205	0.2237	36.6211	-0.349993	200.712	0.450479	0.186246	1.42288	5.30928e-05	1	11	0.00859504	0.000234702	0	7.50763e-05	0.0273061	0.000166802	0.0273066	0.349993	0.0530925	8.69149	8.69165	-89.65	0.0000000E+000	0.0000000E+000	0.0000000E+000	89.65	0.0000000E+000	0.0000000E+000	0.0000000E+000	-89.65	0.0000000E+000	0.0000000E+000	0.0000000E+000	-0.349993	0.0000000E+000	0.0000000E+000	0.0000000E+000	0.349993	163.704	89.65	7.50763e-05
231063	23.0752	-1.99826	23.1616	4.94934	201.996	0.450316	-0.000401096	-0.344697	-0.0025657	1	10	0.0108305	0.000467608	0	8.33119e-05	0.0430139	-0.00372491	0.0431749	-4.94934	-2.5657	29.6278	29.7387	-94.9493	0.0000000E+000	0.0000000E+000	0.0000000E+000	94.9493	0.0000000E+000	0.0000000E+000	0.0000000E+000	-94.9493	0.0000000E+000	0.0000000E+000	0.0000000E+000	4.94934	0.0000000E+000	0.0000000E+000	0.0000000E+000	-4.94934	11.5476	85.0507	1.84912e-07
106786	21.1712	-0.636319	21.1808	1.72156	202.84	0.450323	-0.00734977	-2.34223	-0.00211396	1	10	0.010719	0.000506073	0	8.19635e-05	0.0471913	-0.00141838	0.0472126	-1.72156	-2.11396	70.3342	70.366	-91.7216	0.0000000E+000	0.0000000E+000	0.0000000E+000	91.7216	0.0000000E+000	0.0000000E+000	0.0000000E+000	-91.7216	0.0000000E+000	0.0000000E+000	0.0000000E+000	1.72156	0.0000000E+000	0.0000000E+000	0.0000000E+000	-1.72156	33.2714	88.2784	-3.03956e-07
49352.4	20.8848	-0.244748	20.8862	0.671416	203.684	0.450322	-0.00892647	-13.1763	-0.0018093	1	10	0.0104586	0.000500742	0	8.15733e-05	0.0478752	-0.000561047	0.0478785	-0.671416	-1.80931	154.391	154.402	-90.6714	0.0000000E+000	0.0000000E+000	0.0000000E+000	90.6714	0.0000000E+000	0.0000000E+000	0.0000000E+000	-90.6714	0.0000000E+000	0.0000000E+000	0.0000000E+000	0.671416	0.0000000E+000	0.0000000E+000	0.0000000E+000	-0.671416	85.3318	89.3286	-6.02082e-07
22806.6	20.8187	-0.104856	20.819	0.288575	204.528	0.450323	-0.0102233	-66.5528	-0.00168825	1	10	0.0102995	0.000494719	0	7.86119e-05	0.0480325	-0.000241922	0.0480331	-0.288575	-1.68824	335.194	335.198	-90.2886	0.0000000E+000	0.0000000E+000	0.0000000E+000	90.2886	0.0000000E+000	0.0000000E+000	0.0000000E+000	-90.2886	0.0000000E+000	0.0000000E+000	0.0000000E+000	0.288575	0.0000000E+000	0.0000000E+000	0.0000000E+000	-0.288575	198.545	89.7114	-1.34412e-06
10540.4	20.8298	-0.0559663	20.8299	0.153944	205.237	0.450322	-0.0113111	-269.797	-0.00194767	1	10	0.010844	0.000520599	0	7.62947e-05	0.0480078	-0.000128989	0.0480079	-0.153944	-1.9477	724.895	724.898	-90.1539	0.0000000E+000	0.0000000E+000	0.0000000E+000	90.1539	0.0000000E+000	0.0000000E+000	0.0000000E+000	-90.1539	0.0000000E+000	0.0000000E+000	0.0000000E+000	0.153944	0.0000000E+000	0.0000000E+000	0.0000000E+000	-0.153944	372.185	89.8461	-1.12505e-06
4871.56	20.8648	-0.0209768	20.8648	0.0576033	206.229	0.45035	-0.0122198	-1557.45	-0.00157421	1	10	0.0103817	0.000497569	0	7.33059e-05	0.0479275	-4.81847e-05	0.0479275	-0.0576033	-1.57417	1565.8	1565.8	-90.0576	0.0000000E+000	0.0000000E+000	0.0000000E+000	90.0576	0.0000000E+000	0.0000000E+000	0.0000000E+000	-90.0576	0.0000000E+000	0.0000000E+000	0.0000000E+000	0.0576033	0.0000000E+000	0.0000000E+000	0.0000000E+000	-0.0576033	994.662	89.9424	-1.57153e-06
2250.72	20.8815	0.00507748	20.8815	-0.0139319	207.158	0.450355	-0.013302	13926.8	0.000823426	1	10	0.0105219	0.000503886	0	6.99251e-05	0.0478893	1.16446e-05	0.0478893	0.0139319	0.82339	3386.39	3386.39	-89.9861	0.0000000E+000	0.0000000E+000	0.0000000E+000	89.9861	0.0000000E+000	0.0000000E+000	0.0000000E+000	-89.9861	0.0000000E+000	0.0000000E+000	0.0000000E+000	-0.0139319	0.0000000E+000	0.0000000E+000	0.0000000E+000	0.0139319	4112.57	89.9861	-1.34143e-06
1040.33	20.8645	0.0202546	20.8645	-0.0556208	208.088	0.450345	-0.0131024	7553.1	0.00711794	1	10	0.0105501	0.00050565	0	6.67844e-05	0.0479283	4.65271e-05	0.0479283	0.0556208	7.11762	7332.29	7332.29	-89.9444	0.0000000E+000	0.0000000E+000	0.0000000E+000	89.9444	0.0000000E+000	0.0000000E+000	0.0000000E+000	-89.9444	0.0000000E+000	0.0000000E+000	0.0000000E+000	-0.0556208	0.0000000E+000	0.0000000E+000	0.0000000E+000	0.0556208	1030.11	89.9444	-1.83182e-06
480.769	20.8791	0.0579691	20.8791	-0.159077	209.017	0.450344	-0.0140036	5710.67	0.0440205	1	10	0.0105595	0.000505743	0	6.35693e-05	0.0478945	0.000132975	0.0478947	0.159077	44.0215	15855.1	15855.2	-89.8409	0.0000000E+000	0.0000000E+000	0.0000000E+000	89.8409	0.0000000E+000	0.0000000E+000	0.0000000E+000	-89.8409	0.0000000E+000	0.0000000E+000	0.0000000E+000	-0.159077	0.0000000E+000	0.0000000E+000	0.0000000E+000	0.159077	360.176	89.8409	-1.70786e-06
222.061	20.9332	0.105695	20.9334	-0.289292	209.943	0.450345	-0.014513	6781.02	0.17287	1	10	0.0105709	0.000504978	0	5.96444e-05	0.0477698	0.000241197	0.0477704	0.289292	172.87	34237.5	34237.9	-89.7107	0.0000000E+000	0.0000000E+000	0.0000000E+000	89.7107	0.0000000E+000	0.0000000E+000	0.0000000E+000	-89.7107	0.0000000E+000	0.0000000E+000	0.0000000E+000	-0.289292	0.0000000E+000	0.0000000E+000	0.0000000E+000	0.289292	198.053	89.7107	-2.40795e-06
102.667	20.9181	0.240342	20.9195	-0.658278	210.879	0.450357	-0.0149235	6449.99	0.85136	1	10	0.0105688	0.000505213	0	5.59201e-05	0.0477991	0.000549194	0.0478023	0.658278	851.362	74098.2	74103	-89.3417	0.0000000E+000	0.0000000E+000	0.0000000E+000	89.3417	0.0000000E+000	0.0000000E+000	0.0000000E+000	-89.3417	0.0000000E+000	0.0000000E+000	0.0000000E+000	-0.658278	0.0000000E+000	0.0000000E+000	0.0000000E+000	0.658278	87.035	89.3417	-1.95313e-06
47.4443	20.9872	0.483469	20.9928	-1.31965	212.045	0.450326	0.00208306	6938.52	3.68014	1	11	0.0105754	0.000503765	0	5.51208e-05	0.0476228	0.00109706	0.0476354	1.31965	3680.15	159754	159796	-88.6803	0.0000000E+000	0.0000000E+000	0.0000000E+000	88.6803	0.0000000E+000	0.0000000E+000	0.0000000E+000	-88.6803	0.0000000E+000	0.0000000E+000	0.0000000E+000	-1.31965	0.0000000E+000	0.0000000E+000	0.0000000E+000	1.31965	43.4096	88.6803	-3.02563e-07
21.9144	20.9838	1.03427	21.0093	-2.82177	212.913	0.450325	0.00236899	7021.92	17.0177	1	11	0.0105753	0.000503361	0	5.4338e-05	0.0475403	0.00234321	0.047598	2.82177	17017.8	345264	345684	-87.1782	0.0000000E+000	0.0000000E+000	0.0000000E+000	87.1782	0.0000000E+000	0.0000000E+000	0.0000000E+000	-87.1782	0.0000000E+000	0.0000000E+000	0.0000000E+000	-2.82177	0.0000000E+000	0.0000000E+000	0.0000000E+000	2.82177	20.2885	87.1782	-1.07034e-06
10.1329	20.9558	2.23601	21.0748	-6.09049	213.84	0.450337	4.53431e-05	7024.42	79.0739	1	11	0.0105801	0.000502027	0	5.76337e-05	0.0471823	0.00503441	0.0474501	6.09049	79074	741078	745284	-83.9095	0.0000000E+000	0.0000000E+000	0.0000000E+000	83.9095	0.0000000E+000	0.0000000E+000	0.0000000E+000	-83.9095	0.0000000E+000	0.0000000E+000	0.0000000E+000	-6.09049	0.0000000E+000	0.0000000E+000	0.0000000E+000	6.09049	9.37196	83.9095	3.15899e-06
4.68375	21.0433	4.88633	21.6032	-13.0726	214.69	0.450342	0.00133493	6954.14	355.774	1	11	0.0105793	0.000489713	0	6.09503e-05	0.0450899	0.01047	0.0462895	13.0726	355774	1.53216e+06	1.57293e+06	-76.9274	0.0000000E+000	0.0000000E+000	0.0000000E+000	76.9274	0.0000000E+000	0.0000000E+000	0.0000000E+000	-76.9274	0.0000000E+000	0.0000000E+000	0.0000000E+000	-13.0726	0.0000000E+000	0.0000000E+000	0.0000000E+000	13.0726	4.30657	76.9274	6.38785e-06
2.16533	21.4593	10.3102	23.8076	-25.6622	216.405	0.450346	0.00163933	7129	1337.01	1	11	0.0105849	0.0004446	0	4.97379e-05	0.0378603	0.0181902	0.0420034	25.6622	1.33701e+06	2.78279e+06	3.08732e+06	-64.3378	0.0000000E+000	0.0000000E+000	0.0000000E+000	64.3378	0.0000000E+000	0.0000000E+000	0.0000000E+000	-64.3378	0.0000000E+000	0.0000000E+000	0.0000000E+000	-25.6622	0.0000000E+000	0.0000000E+000	0.0000000E+000	25.6622	2.08136	64.3378	-7.88224e-06
1.00006	21.9993	22.1331	31.2065	-45.1737	221.063	0.450352	0.00365944	7190.35	3616.97	1	12	0.0105879	0.000339286	0	6.84022e-05	0.0225902	0.0227275	0.0320446	45.1737	3.61697e+06	3.59511e+06	5.09973e+06	-44.8263	0.0000000E+000	0.0000000E+000	0.0000000E+000	44.8263	0.0000000E+000	0.0000000E+000	0.0000000E+000	-44.8263	0.0000000E+000	0.0000000E+000	0.0000000E+000	-45.1737	0.0000000E+000	0.0000000E+000	0.0000000E+000	45.1737	0.993956	44.8263	1.65281e-05