File: ACS_Catal_2026/Figures_Na_K/main_figures/data/EC/20240401_2-128_CV_cycles_alpha_gamma/alpha/20240328_2-128_001_alpha_K-1_03_CVA_C01.mpt
EC-Lab ASCII FILE
Nb header lines : 66

Cyclic Voltammetry Advanced

Run on channel : 1 (SN 66412)
User :
CE vs. WE compliance from -10 V to 10 V
Electrode connection : standard
Potential control : Ewe
Ewe ctrl range : min = -1.00 V, max = 1.00 V
Safety Limits :
	Do not start on E overload
Acquisition started on : 04/01/2024 18:50:54.595
Loaded Setting File :  C:\Users\NakamuraT\Documents\EC-Lab\Data\Yatsuzuka\20240328_2-129_UV-vis_K_Na_diff\20240328_2-129_001_preconditioning+CV_inK.mps
Saved on :
	File : 20240328_2-128_001_alpha_K-1_03_CVA_C01.mpr
	Directory : C:\Users\NakamuraT\Documents\EC-Lab\Data\Yatsuzuka\20240401_2-128_CV_cycles_alpha_gamma\
	Host : 192.109.209.100
Device : SP-150e (SN .003411)
Address : 192.109.209.236
EC-Lab for windows v11.50 (software)
Internet server v11.50 (firmware)
Command interpretor v11.50 (firmware)
Electrode material :
Initial state :
Electrolyte :
Comments :
Electrode surface area : 0.001 cm2
Characteristic mass : 0.001 g
Equivalent Weight : 0.000 g/eq.
Density : 0.000 g/cm3
Volume (V) : 0.001 cm3
Cycle Definition : Charge/Discharge alternance
Ei (V)              0.450
vs.                 Ref
ti (h:m:s)          0:00:10.0000
dti (s)             0.0000
dE/dt               5.000
dE/dt unit          mV/s
E1 (V)              0.700
vs.                 Ref
t1 (h:m:s)          0:00:0.0000
dt1 (s)             0.1000
Step percent        50
N                   10
E range min (V)     -1.000
E range max (V)     1.000
I Range             10 mA
I Range min         Unset
I Range max         Unset
I Range init        Unset
Bandwidth           5
E2 (V)              0.450
vs.                 Ref
t2 (h:m:s)          0:00:0.0000
dt2 (s)             0.1000
nc cycles           14
nr                  1
Reverse Scan        0
Ef (V)              0.000
vs.                 Eoc
tf (h:m:s)          0:00:0.0000
dtf (s)             0.1000

mode	ox/red	error	control changes	Ns changes	counter inc.	time/s	control/V	Ewe/V	<I>/mA	cycle number	(Q-Qo)/C	I Range	Ns	step time/s	P/W
2	0	0	1	0	0	231.183	0.449951	0.450132	-0.00306432	1	0.0000000E+000	11	0	0.000000000000000E+000	-1.37935e-06
2	1	0	0	0	0	243.74	0.512737	0.513098	0.0538581	1	0.000556983	11	0	12.5022	2.76345e-05
2	1	0	0	0	0	256.343	0.575749	0.576059	0.13828	1	0.00160965	11	0	25.1046	7.96575e-05
2	1	0	0	0	0	268.945	0.638761	0.639082	0.736883	1	0.00612623	11	0	37.707	0.000470929
2	1	0	1	0	0	281.353	0.699173	0.699518	2.22296	1	0.0241321	11	0	50.1148	0.001555
2	1	0	1	0	0	293.955	0.636161	0.636486	0.581616	1	0.0406873	11	0	62.7172	0.00037019
2	1	0	1	0	0	306.558	0.573149	0.573493	0.0248871	1	0.0434766	11	0	75.3196	1.42726e-05
2	0	0	1	0	0	319.16	0.510137	0.510473	-0.0326664	1	0.043288	11	0	10.102	-1.66753e-05
2	1	0	0	0	1	331.638	0.452276	0.452641	0.0251137	2	0.0428336	11	0	0.2	1.13675e-05
2	1	0	0	0	1	344.24	0.515288	0.515627	0.0379417	2	0.0432755	11	0	12.8024	1.95637e-05
2	1	0	0	0	1	356.842	0.5783	0.578679	0.0940791	2	0.0439532	11	0	25.4048	5.44416e-05
2	1	0	0	0	1	369.445	0.641312	0.641643	0.683398	2	0.0477846	11	0	38.0072	0.000438498
2	1	0	1	0	1	381.843	0.696672	0.697036	2.04835	2	0.06522	11	0	50.405	0.00142777
2	1	0	1	0	1	394.445	0.63366	0.633967	0.493226	2	0.0801729	11	0	63.0074	0.000312689
2	1	0	1	0	1	407.047	0.570648	0.570974	0.0126882	2	0.0824127	11	0	75.6098	7.24464e-06
2	0	0	1	0	1	419.65	0.507636	0.50802	-0.0333794	2	0.0821702	11	0	11.2022	-1.69574e-05
2	1	0	1	0	0	432.127	0.454776	0.455105	0.030289	3	0.0817458	11	0	0.7	1.37847e-05
2	1	0	1	0	0	444.73	0.517788	0.518103	0.0361502	3	0.0821753	11	0	13.3024	1.87295e-05
2	1	0	1	0	0	457.332	0.5808	0.581136	0.09355	3	0.0828355	11	0	25.9048	5.43653e-05
2	1	0	1	0	0	469.934	0.643812	0.644109	0.691294	3	0.0867037	11	0	38.5072	0.000445269
2	1	0	0	0	0	482.332	0.694172	0.694522	1.90649	3	0.104157	11	0	50.905	0.0013241
2	1	0	0	0	0	494.935	0.63116	0.631528	0.430657	3	0.117834	11	0	63.5074	0.000271972
2	1	0	0	0	0	507.537	0.568148	0.5685	0.00532635	3	0.119704	11	0	76.1098	3.02803e-06
2	0	0	0	0	0	520.139	0.505136	0.505502	-0.0338693	3	0.11943	11	0	11.9022	-1.7121e-05
2	1	0	1	0	1	532.617	0.457277	0.457631	0.0311386	4	0.11904	11	0	1.2002	1.425e-05
2	1	0	1	0	1	545.219	0.520289	0.520621	0.0351268	4	0.119463	11	0	13.8026	1.82878e-05
2	1	0	1	0	1	557.822	0.583301	0.583672	0.0951817	4	0.120125	11	0	26.405	5.55549e-05
2	1	0	1	0	1	570.424	0.646313	0.64664	0.703217	4	0.124081	11	0	39.0074	0.000454728
2	1	0	0	0	1	582.822	0.691671	0.692048	1.76548	4	0.14138	11	0	51.4052	0.00122179
2	1	0	0	0	1	595.424	0.628659	0.629001	0.375185	4	0.153864	11	0	64.0076	0.000235992
2	1	0	1	0	1	608.027	0.565647	0.565965	-0.000428998	4	0.155438	11	0	0.000000000000000E+000	-2.42798e-07
2	0	0	1	0	1	620.629	0.502636	0.502999	-0.0343008	4	0.155141	11	0	12.6024	-1.72532e-05
2	1	0	0	0	0	633.107	0.459777	0.460116	0.0307772	5	0.154786	11	0	1.7002	1.41611e-05
2	1	0	0	0	0	645.709	0.522789	0.523112	0.0346353	5	0.155206	11	0	14.3026	1.81181e-05
2	1	0	0	0	0	658.311	0.585801	0.586177	0.0986215	5	0.155879	11	0	26.905	5.78097e-05
2	1	0	0	0	0	670.914	0.648813	0.64916	0.733391	5	0.160024	11	0	39.5074	0.000476088
2	1	0	1	0	0	683.312	0.689171	0.689512	1.68043	5	0.177622	11	0	51.9052	0.00115867
2	1	0	1	0	0	695.914	0.626159	0.626478	0.333431	5	0.189196	11	0	64.5076	0.000208887
2	0	0	1	0	0	708.516	0.563147	0.563549	-0.00528803	5	0.190528	11	0	0.6002	-2.98006e-06
2	0	0	1	0	0	721.119	0.500135	0.500455	-0.0347612	5	0.190214	11	0	13.2026	-1.73964e-05
2	1	0	0	0	1	733.596	0.462278	0.462617	0.0316802	6	0.189894	11	0	2.2004	1.46558e-05
2	1	0	0	0	1	746.199	0.52529	0.525614	0.0355617	6	0.190312	11	0	14.8028	1.86917e-05
2	1	0	0	0	1	758.801	0.588302	0.588637	0.103397	6	0.191003	11	0	27.4052	6.08635e-05
2	1	0	0	0	1	771.404	0.651314	0.651606	0.768766	6	0.195364	11	0	40.0076	0.000500933
2	1	0	1	0	1	783.801	0.68667	0.686978	1.59444	6	0.213184	11	0	52.4053	0.00109535
2	1	0	1	0	1	796.404	0.623658	0.623999	0.293805	6	0.22394	11	0	65.0077	0.000183334
2	0	0	0	0	1	809.006	0.560646	0.560971	-0.00883574	6	0.225063	11	0	1.2002	-4.95659e-06
2	0	0	0	0	1	821.608	0.497634	0.497998	-0.0343181	6	0.224734	11	0	13.8026	-1.70904e-05
2	1	0	1	0	0	834.086	0.464778	0.465139	0.0312461	7	0.224448	11	0	2.7004	1.45338e-05
2	1	0	1	0	0	846.688	0.52779	0.528166	0.0354143	7	0.224865	11	0	15.3028	1.87046e-05
2	1	0	1	0	0	859.291	0.590802	0.591128	0.109247	7	0.225575	11	0	27.9052	6.45788e-05
2	1	0	1	0	0	871.893	0.653814	0.654121	0.800291	7	0.23017	11	0	40.5076	0.000523487
2	1	0	0	0	0	884.291	0.68417	0.684501	1.50193	7	0.248109	11	0	52.9054	0.00102808
2	1	0	0	0	0	896.893	0.621158	0.621445	0.25955	7	0.258065	11	0	65.5078	0.000161296
2	0	0	0	0	0	909.496	0.558146	0.558472	-0.0115719	7	0.259009	11	0	1.9004	-6.46256e-06
2	0	0	0	0	0	922.098	0.495134	0.495517	-0.0348997	7	0.258668	11	0	14.5028	-1.72934e-05
2	1	0	1	0	1	934.576	0.467279	0.467656	0.0310487	8	0.258416	11	0	3.2006	1.45201e-05
2	1	0	1	0	1	947.178	0.530291	0.530605	0.0349697	8	0.258831	11	0	15.803	1.85551e-05
2	1	0	1	0	1	959.781	0.593303	0.593643	0.115294	8	0.259567	11	0	28.4054	6.84433e-05
2	1	0	1	0	1	972.383	0.656315	0.656711	0.840893	8	0.264423	11	0	41.0078	0.000552224
2	1	0	1	0	1	984.781	0.68167	0.682024	1.41402	8	0.282484	11	0	53.4055	0.000964396
2	1	0	1	0	1	997.383	0.618657	0.618965	0.229166	8	0.291651	11	0	66.0079	0.000141846
2	0	0	1	0	1	1009.99	0.555645	0.556034	-0.0139853	8	0.292437	11	0	2.4004	-7.7763e-06
2	0	0	1	0	1	1022.59	0.492634	0.492999	-0.034764	8	0.292084	11	0	15.0028	-1.71386e-05
2	1	0	0	0	0	1035.07	0.469779	0.470076	0.0319353	9	0.291867	11	0	3.7006	1.5012e-05
2	1	0	0	0	0	1047.67	0.532791	0.53313	0.0359631	9	0.292281	11	0	16.303	1.9173e-05
2	1	0	0	0	0	1060.27	0.595803	0.596133	0.123097	9	0.293047	11	0	28.9054	7.3382e-05
2	1	0	0	0	0	1072.87	0.658815	0.659176	0.874288	9	0.298171	11	0	41.5078	0.00057631
2	1	0	1	0	0	1085.27	0.679169	0.679466	1.32457	9	0.316195	11	0	53.9056	0.000899997
2	1	0	1	0	0	1097.87	0.616157	0.616517	0.199472	9	0.324643	11	0	66.508	0.000122978
2	0	0	1	0	0	1110.48	0.553145	0.553514	-0.0159822	9	0.32529	11	0	3.1006	-8.84637e-06
2	0	0	1	0	0	1123.08	0.490133	0.490465	-0.0345416	9	0.324929	11	0	15.703	-1.69414e-05
2	1	0	0	0	1	1135.56	0.47228	0.47264	0.0319012	10	0.324747	11	0	4.2008	1.50778e-05
2	1	0	0	0	1	1148.16	0.535292	0.535613	0.0363536	10	0.32516	11	0	16.8032	1.94715e-05
2	1	0	0	0	1	1160.76	0.598303	0.598582	0.130827	10	0.325959	11	0	29.4056	7.83104e-05
2	1	0	0	0	1	1173.36	0.661315	0.661681	0.918681	10	0.331387	11	0	42.008	0.000607874
2	1	0	1	0	1	1185.76	0.676668	0.67698	1.24986	10	0.349428	11	0	54.4057	0.000846132
2	1	0	0	0	1	1198.36	0.613656	0.614023	0.17616	10	0.357217	11	0	67.008	0.000108166
2	0	0	0	0	1	1210.96	0.550644	0.550931	-0.0186792	10	0.357742	11	0	3.7006	-1.0291e-05
2	0	0	0	0	1	1223.57	0.487633	0.487919	-0.0353978	10	0.357372	11	0	16.303	-1.72713e-05
2	1	0	1	0	0	1236.04	0.47478	0.475081	0.0315305	11	0.357225	11	0	4.7008	1.49795e-05
2	1	0	1	0	0	1248.65	0.537792	0.538143	0.0366978	11	0.357639	11	0	17.3032	1.97486e-05
2	1	0	1	0	0	1261.25	0.600804	0.601134	0.13992	11	0.358476	11	0	29.9056	8.41104e-05
2	1	0	1	0	0	1273.85	0.663816	0.66406	0.96292	11	0.364228	11	0	42.508	0.000639436
2	1	0	0	0	0	1286.25	0.674168	0.674508	1.16665	11	0.382228	11	0	54.9058	0.000786916
2	1	0	0	0	0	1298.85	0.611156	0.611461	0.153022	11	0.389358	11	0	67.5082	9.35669e-05
2	0	0	0	0	0	1311.45	0.548144	0.54845	-0.0200391	11	0.389776	11	0	4.2008	-1.09905e-05
2	0	0	0	0	0	1324.06	0.485132	0.485472	-0.0349033	11	0.3894	11	0	16.8032	-1.69446e-05
2	1	0	1	0	1	1336.53	0.477281	0.477605	0.0317149	12	0.389287	11	0	5.201	1.51472e-05
2	1	0	1	0	1	1349.14	0.540292	0.540621	0.0365216	12	0.3897	11	0	17.8034	1.97443e-05
2	1	0	1	0	1	1361.74	0.603304	0.603634	0.149546	12	0.390579	11	0	30.4058	9.02713e-05
2	1	0	1	0	1	1374.34	0.666316	0.666603	1.00698	12	0.39668	11	0	43.0082	0.000671258
2	1	0	1	0	1	1386.74	0.671667	0.672027	1.09389	12	0.414562	11	0	55.4058	0.000735122
2	1	0	1	0	1	1399.34	0.608655	0.609024	0.132132	12	0.421113	11	0	68.0082	8.04717e-05
2	0	0	1	0	1	1411.94	0.545644	0.545983	-0.0216852	12	0.421438	11	0	4.8008	-1.18398e-05
2	0	0	1	0	1	1424.55	0.482632	0.483022	-0.035813	12	0.421055	11	0	17.4032	-1.72985e-05
2	1	0	0	0	0	1437.02	0.479781	0.480052	0.0309052	13	0.420976	11	0	5.701	1.48361e-05
2	1	0	0	0	0	1449.63	0.542793	0.543198	0.0373526	13	0.421389	11	0	18.3034	2.02899e-05
2	1	0	0	0	0	1462.23	0.605805	0.606185	0.160561	13	0.422318	11	0	30.9058	9.73298e-05
2	1	0	0	0	0	1474.83	0.668817	0.669157	1.05577	13	0.428784	11	0	43.5082	0.000706476
2	1	0	1	0	0	1487.23	0.669167	0.669496	1.03396	13	0.446617	11	0	55.906	0.000692235
2	1	0	1	0	0	1499.83	0.606155	0.606441	0.114364	13	0.452651	11	0	68.5084	6.93552e-05
2	0	0	1	0	0	1512.43	0.543143	0.543483	-0.0230534	13	0.452892	11	0	5.301	-1.25291e-05
2	0	0	1	0	0	1525.04	0.480131	0.480455	-0.0364698	13	0.452504	11	0	17.9034	-1.75221e-05
2	1	0	0	0	1	1537.51	0.482282	0.482613	0.0318481	14	0.452459	11	0	6.2012	1.53703e-05
2	1	0	0	0	1	1550.12	0.545294	0.545637	0.0380103	14	0.452874	11	0	18.8036	2.07398e-05
2	1	0	0	0	1	1562.72	0.608305	0.608649	0.173092	14	0.453856	11	0	31.406	0.000105352
2	1	0	1	0	1	1575.32	0.671317	0.671649	1.102	14	0.460696	11	0	44.0083	0.000740158
2	1	0	0	0	1	1587.72	0.666667	0.666974	0.968674	14	0.478343	11	0	56.406	0.000646081
2	1	0	0	0	1	1600.32	0.603655	0.604014	0.0991993	14	0.483864	11	0	69.0084	5.99178e-05
2	0	0	0	0	1	1612.92	0.540643	0.541	-0.02391	14	0.484033	11	0	5.901	-1.29353e-05
2	0	0	0	0	1	1625.53	0.477631	0.477961	-0.0357274	14	0.483637	11	0	18.5034	-1.70763e-05
2	1	0	1	0	0	1638	0.484782	0.485124	0.0307591	15	0.483626	11	0	6.7012	1.4922e-05
2	1	0	1	0	0	1650.61	0.547794	0.548118	0.0383124	15	0.484044	11	0	19.3036	2.09997e-05
2	1	0	1	0	0	1663.21	0.610806	0.61115	0.186501	15	0.485083	11	0	31.906	0.00011398
2	1	0	1	0	0	1675.81	0.673818	0.674114	1.15065	15	0.492336	11	0	44.5084	0.000775668
2	1	0	0	0	0	1688.21	0.664166	0.664509	0.905274	15	0.509737	11	0	56.9062	0.000601562
2	1	0	0	0	0	1700.81	0.601154	0.601434	0.0841078	15	0.514772	11	0	69.5086	5.05853e-05
2	0	0	0	0	0	1713.41	0.538142	0.538544	-0.0251451	15	0.514876	11	0	6.5012	-1.35417e-05
2	0	0	0	0	0	1726.02	0.47513	0.475445	-0.036194	15	0.514479	11	0	19.1036	-1.72083e-05
2	0	0	0	0	0	1731.04	0.450001	0.450418	-0.0422979	15	0.514289	11	0	24.1246	-1.90518e-05