File: ACS_Catal_2026/Figures_Na_K/main_figures/data/EC/20240401_2-128_CV_cycles_alpha_gamma/gamma/20240328_2-128_006_gamma_K-2_02_PEIS_C02.mpt
EC-Lab ASCII FILE
Nb header lines : 63

Potentio Electrochemical Impedance Spectroscopy

Run on channel : 2 (SN 66414)
User :
CE vs. WE compliance from -10 V to 10 V
Electrode connection : standard
Potential control : Ewe
Ewe ctrl range : min = -1.00 V, max = 1.00 V
Safety Limits :
	Do not start on E overload
Acquisition started on : 04/01/2024 19:59:40.490
Loaded Setting File :  C:\Users\NakamuraT\Documents\EC-Lab\Data\Yatsuzuka\20240401_2-128_CV_cycles_alpha_gamma\20240328_2-128_001_alpha_K-1.mps
Saved on :
	File : 20240328_2-128_006_gamma_K-2_02_PEIS_C02.mpr
	Directory : C:\Users\NakamuraT\Documents\EC-Lab\Data\Yatsuzuka\20240401_2-128_CV_cycles_alpha_gamma\
	Host : 192.109.209.100
Device : SP-150e (SN .003411)
Address : 192.109.209.236
EC-Lab for windows v11.50 (software)
Internet server v11.50 (firmware)
Command interpretor v11.50 (firmware)
Electrode material :
Initial state :
Electrolyte :
Comments :
Electrode surface area : 0.001 cm2
Characteristic mass : 0.001 g
Equivalent Weight : 0.000 g/eq.
Density : 0.000 g/cm3
Volume (V) : 0.001 cm3
Cycle Definition : Charge/Discharge alternance
Mode                Single sine
E (V)               0.4500
vs.                 Ref
tE (h:m:s)          0:00:0.0000
record              0
dI                  0.000
unit dI             mA
dt (s)              0.000
fi                  500.000
unit fi             kHz
ff                  1.000
unit ff             Hz
Nd                  6
Points              per decade
spacing             Logarithmic
Va (mV)             10.0
pw                  0.10
Na                  2
corr                0
E range min (V)     -1.000
E range max (V)     1.000
I Range             Auto
Bandwidth           5
nc cycles           0
goto Ns'            0
nr cycles           0
inc. cycle          0

freq/Hz	Re(Z)/Ohm	-Im(Z)/Ohm	|Z|/Ohm	Phase(Z)/deg	time/s	<Ewe>/V	<I>/mA	Cs/uF	Cp/uF	cycle number	I Range	|Ewe|/V	|I|/A	Ns	(Q-Qo)/mA.h	Re(Y)/Ohm-1	Im(Y)/Ohm-1	|Y|/Ohm-1	Phase(Y)/deg	Re(C)/nF	Im(C)/nF	|C|/nF	Phase(C)/deg	Re(M)	Im(M)	|M|	Phase(M)/deg	Re(Permittivity)	Im(Permittivity)	|Permittivity|	Phase(Permittivity)/deg	Re(Resistivity)/Ohm.cm	Im(Resistivity)/Ohm.cm	|Resistivity|/Ohm.cm	Phase(Resistivity)/deg	Re(Conductivity)/mS/cm	Im(Conductivity)/mS/cm	|Conductivity|/mS/cm	Phase(Conductivity)/deg	Tan(Delta)	Loss Angle(Delta)/deg	dq/mA.h
500019	45.1546	11.2861	46.5437	-14.0332	201.391	0.45046	-0.000871987	0.0282026	0.00165827	1	11	0.0101398	0.000217856	0	5.62651e-07	0.020844	0.00520982	0.0214852	14.0332	1.65827	6.63459	6.83869	-75.9668	0.0000000E+000	0.0000000E+000	0.0000000E+000	75.9668	0.0000000E+000	0.0000000E+000	0.0000000E+000	-75.9668	0.0000000E+000	0.0000000E+000	0.0000000E+000	-14.0332	0.0000000E+000	0.0000000E+000	0.0000000E+000	14.0332	4.0009	75.9668	5.62651e-07
231063	29.2057	-0.715429	29.2144	1.40325	202.675	0.4503	-0.0045123	-0.962772	-0.000577382	1	10	0.00990025	0.000338882	0	-8.07165e-08	0.0342194	-0.000838248	0.0342297	-1.40325	-0.577381	23.5702	23.5773	-91.4033	0.0000000E+000	0.0000000E+000	0.0000000E+000	91.4033	0.0000000E+000	0.0000000E+000	0.0000000E+000	-91.4033	0.0000000E+000	0.0000000E+000	0.0000000E+000	1.40325	0.0000000E+000	0.0000000E+000	0.0000000E+000	-1.40325	40.8225	88.5967	-3.9832e-07
106786	26.0534	-0.137421	26.0538	0.302209	203.519	0.45031	-0.00500324	-10.8456	-0.000301728	1	10	0.0106836	0.000410059	0	-2.13478e-06	0.0383816	-0.000202447	0.0383822	-0.302209	-0.301728	57.2042	57.205	-90.3022	0.0000000E+000	0.0000000E+000	0.0000000E+000	90.3022	0.0000000E+000	0.0000000E+000	0.0000000E+000	-90.3022	0.0000000E+000	0.0000000E+000	0.0000000E+000	0.302209	0.0000000E+000	0.0000000E+000	0.0000000E+000	-0.302209	189.588	89.6978	-8.12816e-07
49352.4	25.5348	0.0194119	25.5348	-0.043557	204.363	0.450315	-0.00477364	166.129	9.60096e-05	1	10	0.0104241	0.000408231	0	-3.54292e-06	0.0391622	2.97716e-05	0.0391622	0.043557	0.0960079	126.293	126.293	-89.9564	0.0000000E+000	0.0000000E+000	0.0000000E+000	89.9564	0.0000000E+000	0.0000000E+000	0.0000000E+000	-89.9564	0.0000000E+000	0.0000000E+000	0.0000000E+000	-0.043557	0.0000000E+000	0.0000000E+000	0.0000000E+000	0.043557	1315.42	89.9564	-7.76239e-07
22806.6	25.4611	0.0489859	25.4611	-0.110234	205.207	0.450317	-0.00504617	142.459	0.000527322	1	10	0.0102506	0.000402598	0	-5.00029e-06	0.0392755	7.55641e-05	0.0392756	0.110234	0.527336	274.083	274.083	-89.8898	0.0000000E+000	0.0000000E+000	0.0000000E+000	89.8898	0.0000000E+000	0.0000000E+000	0.0000000E+000	-89.8898	0.0000000E+000	0.0000000E+000	0.0000000E+000	-0.110234	0.0000000E+000	0.0000000E+000	0.0000000E+000	0.110234	519.764	89.8898	-4.65761e-07
10540.4	25.421	0.107395	25.4212	-0.242055	205.916	0.450314	-0.00544005	140.598	0.00250933	1	10	0.0106349	0.000418347	0	-6.44203e-06	0.0393369	0.000166186	0.0393373	0.242055	2.50936	593.97	593.975	-89.7579	0.0000000E+000	0.0000000E+000	0.0000000E+000	89.7579	0.0000000E+000	0.0000000E+000	0.0000000E+000	-89.7579	0.0000000E+000	0.0000000E+000	0.0000000E+000	-0.242055	0.0000000E+000	0.0000000E+000	0.0000000E+000	0.242055	236.704	89.7579	-3.14774e-07
4871.56	25.4468	0.216306	25.4477	-0.487022	206.962	0.45034	-0.00542885	151.037	0.0109125	1	10	0.010068	0.000395636	0	-8.80096e-06	0.0392949	0.00033402	0.0392963	0.487022	10.9125	1283.77	1283.82	-89.513	0.0000000E+000	0.0000000E+000	0.0000000E+000	89.513	0.0000000E+000	0.0000000E+000	0.0000000E+000	-89.513	0.0000000E+000	0.0000000E+000	0.0000000E+000	-0.487022	0.0000000E+000	0.0000000E+000	0.0000000E+000	0.487022	117.642	89.513	-1.82291e-06
2250.72	25.4497	0.446394	25.4536	-1.00488	207.892	0.450345	-0.00534858	158.409	0.0487214	1	10	0.0101452	0.000398576	0	-1.00892e-05	0.0392812	0.000689003	0.0392872	1.00488	48.7215	2777.69	2778.11	-88.9951	0.0000000E+000	0.0000000E+000	0.0000000E+000	88.9951	0.0000000E+000	0.0000000E+000	0.0000000E+000	-88.9951	0.0000000E+000	0.0000000E+000	0.0000000E+000	-1.00488	0.0000000E+000	0.0000000E+000	0.0000000E+000	1.00488	57.0116	88.9951	-7.88624e-07
1040.33	25.5235	0.913539	25.5398	-2.04986	208.822	0.450339	-0.00544751	167.464	0.214259	1	10	0.0101679	0.00039812	0	-1.19315e-05	0.0391295	0.00140053	0.0391546	2.04986	214.26	5986.21	5990.05	-87.9501	0.0000000E+000	0.0000000E+000	0.0000000E+000	87.9501	0.0000000E+000	0.0000000E+000	0.0000000E+000	-87.9501	0.0000000E+000	0.0000000E+000	0.0000000E+000	-2.04986	0.0000000E+000	0.0000000E+000	0.0000000E+000	2.04986	27.9391	87.9501	-9.47043e-07
480.769	25.6589	1.82131	25.7234	-4.06015	209.752	0.450334	-0.00618486	181.76	0.911192	1	10	0.0101715	0.000395416	0	-1.34732e-05	0.0387775	0.00275249	0.038875	4.06015	911.193	12837	12869.3	-85.9399	0.0000000E+000	0.0000000E+000	0.0000000E+000	85.9399	0.0000000E+000	0.0000000E+000	0.0000000E+000	-85.9399	0.0000000E+000	0.0000000E+000	0.0000000E+000	-4.06015	0.0000000E+000	0.0000000E+000	0.0000000E+000	4.06015	14.0881	85.9399	-7.69645e-07
222.061	25.8663	3.65126	26.1227	-8.03474	210.928	0.450327	-0.000736947	196.293	3.8349	1	11	0.0101888	0.000390036	0	-1.45101e-05	0.0379051	0.00535065	0.0382808	8.03474	3834.9	27167.2	27436.6	-81.9653	0.0000000E+000	0.0000000E+000	0.0000000E+000	81.9653	0.0000000E+000	0.0000000E+000	0.0000000E+000	-81.9653	0.0000000E+000	0.0000000E+000	0.0000000E+000	-8.03474	0.0000000E+000	0.0000000E+000	0.0000000E+000	8.03474	7.0842	81.9653	-9.79448e-08
102.667	26.2128	7.47452	27.2577	-15.9154	211.865	0.450334	-0.000780964	207.398	15.5953	1	11	0.010192	0.000373914	0	-1.51219e-05	0.0352806	0.0100602	0.0366869	15.9154	15595.3	54692	56872	-74.0846	0.0000000E+000	0.0000000E+000	0.0000000E+000	74.0846	0.0000000E+000	0.0000000E+000	0.0000000E+000	-74.0846	0.0000000E+000	0.0000000E+000	0.0000000E+000	-15.9154	0.0000000E+000	0.0000000E+000	0.0000000E+000	15.9154	3.50696	74.0846	-3.40132e-07
47.4443	26.8128	15.4625	30.9518	-29.9713	212.776	0.450312	-0.000974752	216.949	54.1431	1	11	0.0101834	0.00032901	0	-1.56769e-05	0.0279879	0.0161401	0.0323083	29.9713	54143.1	93887.2	108380	-60.0287	0.0000000E+000	0.0000000E+000	0.0000000E+000	60.0287	0.0000000E+000	0.0000000E+000	0.0000000E+000	-60.0287	0.0000000E+000	0.0000000E+000	0.0000000E+000	-29.9713	0.0000000E+000	0.0000000E+000	0.0000000E+000	29.9713	1.73406	60.0287	-3.75789e-07
21.9144	28.0635	32.19	42.7054	-48.9178	213.644	0.450315	-0.00149382	225.616	128.187	1	11	0.010175	0.000238261	0	-1.65885e-05	0.0153878	0.0176504	0.0234162	48.9178	128187	111755	170062	-41.0822	0.0000000E+000	0.0000000E+000	0.0000000E+000	41.0822	0.0000000E+000	0.0000000E+000	0.0000000E+000	-41.0822	0.0000000E+000	0.0000000E+000	0.0000000E+000	-48.9178	0.0000000E+000	0.0000000E+000	0.0000000E+000	48.9178	0.871809	41.0822	-8.18376e-07
10.1329	30.3041	67.4695	73.9626	-65.8127	214.571	0.45032	-0.00114355	232.797	193.717	1	11	0.0101822	0.000137667	0	-1.59775e-05	0.00553958	0.0123334	0.0135203	65.8127	193717	87008.3	212360	-24.1873	0.0000000E+000	0.0000000E+000	0.0000000E+000	24.1873	0.0000000E+000	0.0000000E+000	0.0000000E+000	-24.1873	0.0000000E+000	0.0000000E+000	0.0000000E+000	-65.8127	0.0000000E+000	0.0000000E+000	0.0000000E+000	65.8127	0.449152	24.1873	7.08356e-07
4.68375	35.2734	141.565	145.893	-76.0087	215.621	0.450339	0.000291739	240.032	226.001	1	12	0.0101884	6.98345e-05	0	-1.70251e-05	0.00165721	0.00665096	0.00685432	76.0087	226001	56312.2	232911	-13.9913	0.0000000E+000	0.0000000E+000	0.0000000E+000	13.9913	0.0000000E+000	0.0000000E+000	0.0000000E+000	-13.9913	0.0000000E+000	0.0000000E+000	0.0000000E+000	-76.0087	0.0000000E+000	0.0000000E+000	0.0000000E+000	76.0087	0.249168	13.9913	-1.02071e-06
2.16533	45.313	294.825	298.287	-81.2623	217.335	0.45034	0.000162242	249.305	243.552	1	12	0.0101809	3.41312e-05	0	-1.60669e-05	0.000509276	0.00331356	0.00335247	81.2623	243552	37432.6	246412	-8.73766	0.0000000E+000	0.0000000E+000	0.0000000E+000	8.73766	0.0000000E+000	0.0000000E+000	0.0000000E+000	-8.73766	0.0000000E+000	0.0000000E+000	0.0000000E+000	-81.2623	0.0000000E+000	0.0000000E+000	0.0000000E+000	81.2623	0.153694	8.73767	7.89263e-07
1.00006	67.3212	619.293	622.942	-83.7959	221.675	0.450343	0.000259579	256.978	253.977	1	13	0.0101798	1.63414e-05	0	-1.61592e-05	0.000173483	0.00159588	0.00160529	83.7959	253977	27608.9	255473	-6.20406	0.0000000E+000	0.0000000E+000	0.0000000E+000	6.20406	0.0000000E+000	0.0000000E+000	0.0000000E+000	-6.20406	0.0000000E+000	0.0000000E+000	0.0000000E+000	-83.7959	0.0000000E+000	0.0000000E+000	0.0000000E+000	83.7959	0.108707	6.20407	-3.71876e-07