File: ACS_Catal_2026/Figures_Na_K/main_figures/data/EC/20240401_2-128_CV_cycles_alpha_gamma/gamma/20240328_2-128_006_gamma_K-2_03_CVA_C02.mpt
EC-Lab ASCII FILE
Nb header lines : 66

Cyclic Voltammetry Advanced

Run on channel : 2 (SN 66414)
User :
CE vs. WE compliance from -10 V to 10 V
Electrode connection : standard
Potential control : Ewe
Ewe ctrl range : min = -1.00 V, max = 1.00 V
Safety Limits :
	Do not start on E overload
Acquisition started on : 04/01/2024 19:59:40.490
Loaded Setting File :  C:\Users\NakamuraT\Documents\EC-Lab\Data\Yatsuzuka\20240401_2-128_CV_cycles_alpha_gamma\20240328_2-128_001_alpha_K-1.mps
Saved on :
	File : 20240328_2-128_006_gamma_K-2_03_CVA_C02.mpr
	Directory : C:\Users\NakamuraT\Documents\EC-Lab\Data\Yatsuzuka\20240401_2-128_CV_cycles_alpha_gamma\
	Host : 192.109.209.100
Device : SP-150e (SN .003411)
Address : 192.109.209.236
EC-Lab for windows v11.50 (software)
Internet server v11.50 (firmware)
Command interpretor v11.50 (firmware)
Electrode material :
Initial state :
Electrolyte :
Comments :
Electrode surface area : 0.001 cm2
Characteristic mass : 0.001 g
Equivalent Weight : 0.000 g/eq.
Density : 0.000 g/cm3
Volume (V) : 0.001 cm3
Cycle Definition : Charge/Discharge alternance
Ei (V)              0.450
vs.                 Ref
ti (h:m:s)          0:00:10.0000
dti (s)             0.0000
dE/dt               5.000
dE/dt unit          mV/s
E1 (V)              0.700
vs.                 Ref
t1 (h:m:s)          0:00:0.0000
dt1 (s)             0.1000
Step percent        50
N                   10
E range min (V)     -1.000
E range max (V)     1.000
I Range             10 mA
I Range min         Unset
I Range max         Unset
I Range init        Unset
Bandwidth           5
E2 (V)              0.450
vs.                 Ref
t2 (h:m:s)          0:00:0.0000
dt2 (s)             0.1000
nc cycles           14
nr                  1
Reverse Scan        0
Ef (V)              0.000
vs.                 Eoc
tf (h:m:s)          0:00:0.0000
dtf (s)             0.1000

mode	ox/red	error	control changes	Ns changes	counter inc.	time/s	control/V	Ewe/V	<I>/mA	cycle number	(Q-Qo)/C	I Range	Ns	step time/s	P/W
2	0	0	0	0	0	231.794	0.449953	0.450351	-0.0020692	1	0.0000000E+000	11	0	0.000000000000000E+000	-9.31864e-07
2	1	0	0	0	0	244.532	0.51364	0.513963	0.00257988	1	1.89067e-05	11	0	12.6826	1.32596e-06
2	1	0	0	0	0	257.314	0.577552	0.577866	0.0224496	1	0.000133519	11	0	25.465	1.29729e-05
2	1	0	1	0	0	270.097	0.641465	0.641773	0.206634	1	0.00124502	11	0	38.2475	0.000132612
2	1	0	1	0	0	282.663	0.695689	0.696042	0.789889	1	0.00764394	11	0	50.8135	0.000549796
2	1	0	1	0	0	295.445	0.631778	0.632055	0.139253	1	0.0126806	11	0	63.5959	8.80153e-05
2	1	0	1	0	0	308.227	0.567866	0.568223	0.0122872	1	0.0133942	11	0	76.3783	6.98189e-06
2	0	0	1	0	0	321.01	0.503954	0.504247	-0.0012672	1	0.0134293	11	0	3.3953	-6.38984e-07
2	1	0	1	0	1	333.558	0.458816	0.459099	0.000529484	2	0.0134065	11	0	1.498	2.43086e-07
2	1	0	1	0	1	346.341	0.522728	0.523021	0.00271517	2	0.013425	11	0	14.2804	1.42009e-06
2	1	0	1	0	1	359.123	0.58664	0.586966	0.0301888	2	0.013572	11	0	27.0628	1.77198e-05
2	1	0	1	0	1	371.906	0.650552	0.650871	0.26159	2	0.0150166	11	0	39.8452	0.000170261
2	1	0	1	0	1	384.452	0.686702	0.687043	0.633176	2	0.0221241	11	0	52.3913	0.00043502
2	1	0	1	0	1	397.234	0.62279	0.623141	0.103214	2	0.0260483	11	0	65.1737	6.43169e-05
2	1	0	1	0	1	410.017	0.558878	0.559216	0.00781683	2	0.0265622	11	0	77.9561	4.3713e-06
2	0	0	1	0	1	422.799	0.494966	0.495272	-0.00164961	2	0.0265769	11	0	5.093	-8.17004e-07
2	1	0	1	0	0	435.348	0.467803	0.468159	0.000965172	3	0.02656	11	0	3.5502	4.51854e-07
2	1	0	1	0	0	448.13	0.531715	0.532066	0.00402025	3	0.0265847	11	0	16.3326	2.13904e-06
2	1	0	1	0	0	460.912	0.595628	0.596011	0.0427133	3	0.0267906	11	0	29.1151	2.54576e-05
2	1	0	1	0	0	473.695	0.65954	0.659863	0.332577	3	0.0286921	11	0	41.8975	0.000219455
2	1	0	1	0	0	486.241	0.677715	0.678039	0.506464	3	0.0362277	11	0	54.4435	0.000343402
2	1	0	1	0	0	499.023	0.613803	0.614123	0.0765102	3	0.0392765	11	0	67.2259	4.69867e-05
2	1	0	0	0	0	511.806	0.54989	0.550219	0.00461716	3	0.0396436	11	0	80.0084	2.54045e-06
2	1	0	0	0	0	524.588	0.485978	0.486287	-0.00164441	3	0.0396451	11	0	7.0903	-7.99656e-07
2	1	0	1	0	1	537.137	0.476791	0.477111	0.00126309	4	0.039634	11	0	5.2927	6.02634e-07
2	1	0	1	0	1	549.919	0.540703	0.541062	0.00568762	4	0.0396663	11	0	18.0751	3.07735e-06
2	1	0	0	0	1	562.702	0.604615	0.604988	0.0593234	4	0.0399556	11	0	30.8576	3.589e-05
2	1	0	0	0	1	575.484	0.668527	0.668818	0.418163	4	0.0424371	11	0	43.64	0.000279675
2	1	0	1	0	1	588.03	0.668727	0.669046	0.401524	4	0.0500752	11	0	56.1861	0.000268638
2	1	0	1	0	1	600.812	0.604815	0.605146	0.0565049	4	0.0524293	11	0	68.9685	3.41937e-05
2	1	0	1	0	1	613.595	0.540903	0.541236	0.00283791	4	0.0526867	11	0	81.7509	1.53598e-06
2	0	0	1	0	1	626.377	0.476991	0.477266	-0.00185974	4	0.0526795	11	0	8.4883	-8.87593e-07
2	1	0	1	0	0	638.926	0.485779	0.486089	0.00161569	5	0.0526753	11	0	7.1453	7.85371e-07
2	1	0	1	0	0	651.708	0.549691	0.550039	0.007304	5	0.0527175	11	0	19.9277	4.01748e-06
2	1	0	1	0	0	664.491	0.613603	0.613908	0.0814834	5	0.053123	11	0	32.7101	5.00234e-05
2	1	0	1	0	0	677.273	0.677515	0.677887	0.519148	5	0.0563255	11	0	45.4925	0.000351924
2	1	0	1	0	0	689.819	0.659739	0.660075	0.316726	5	0.0637515	11	0	58.0386	0.000209063
2	1	0	1	0	0	702.602	0.595827	0.596183	0.0406154	5	0.0655587	11	0	70.821	2.42142e-05
2	0	0	1	0	0	715.384	0.531915	0.532224	0.00107238	5	0.0657367	11	0	83.6034	5.70748e-07
2	0	0	1	0	0	728.166	0.468003	0.4683	-0.00218724	5	0.0657238	11	0	9.9863	-1.02428e-06
2	1	0	1	0	1	740.715	0.494766	0.495031	0.00176236	6	0.0657278	11	0	8.7879	8.7242e-07
2	1	0	1	0	1	753.497	0.558678	0.558983	0.0105335	6	0.0657844	11	0	21.5703	5.88806e-06
2	1	0	1	0	1	766.28	0.62259	0.622847	0.111396	6	0.0663506	11	0	34.3527	6.93827e-05
2	1	0	1	0	1	779.062	0.686503	0.686901	0.636873	6	0.0704289	11	0	47.1352	0.000437468
2	1	0	1	0	1	791.608	0.650752	0.65111	0.247396	6	0.0773253	11	0	59.6812	0.000161082
2	1	0	1	0	1	804.391	0.58684	0.587185	0.0295608	6	0.0787034	11	0	72.4636	1.73577e-05
2	0	0	1	0	1	817.173	0.522928	0.523261	-1.3796e-05	6	0.078822	11	0	0.000000000000000E+000	-7.21888e-09
2	0	0	0	0	1	829.956	0.459015	0.459303	-0.00206713	6	0.0788056	11	0	11.5841	-9.4944e-07
2	1	0	1	0	0	842.504	0.503754	0.504058	0.00208854	7	0.0788168	11	0	10.6853	1.05275e-06
2	1	0	1	0	0	855.286	0.567666	0.567994	0.0151697	7	0.078894	11	0	23.4677	8.61633e-06
2	1	0	1	0	0	868.069	0.631578	0.631901	0.1497	7	0.079677	11	0	36.2501	9.45954e-05
2	1	0	0	0	0	880.851	0.69549	0.695792	0.768532	7	0.0847982	11	0	49.0326	0.000534738
2	1	0	0	0	0	893.397	0.641764	0.642056	0.192341	7	0.0908314	11	0	61.5786	0.000123493
2	1	0	1	0	0	906.18	0.577851	0.578116	0.0205212	7	0.0918739	11	0	74.3611	1.18637e-05
2	0	0	1	0	0	918.962	0.51394	0.514227	-0.000255188	7	0.0919508	11	0	0.6991	-1.31224e-07
2	1	0	1	0	0	931.72	0.450153	0.450405	-0.00108309	7	0.0919324	11	0	13.4566	-4.87828e-07
2	1	0	1	0	1	944.293	0.512742	0.513031	0.00276409	8	0.0919536	11	0	12.4829	1.41806e-06
2	1	0	1	0	1	957.076	0.576654	0.576964	0.0216097	8	0.0920611	11	0	25.2653	1.2468e-05
2	1	0	1	0	1	969.858	0.640566	0.640901	0.198384	8	0.0931337	11	0	38.0477	0.000127144
2	1	0	1	0	1	982.404	0.696689	0.697019	0.783355	8	0.0992288	11	0	50.5937	0.000546014
2	1	0	1	0	1	995.186	0.632777	0.633106	0.148231	8	0.104332	11	0	63.3761	9.38459e-05
2	1	0	1	0	1	1007.97	0.568864	0.569193	0.0142106	8	0.105113	11	0	76.1586	8.08855e-06
2	1	0	1	0	1	1020.75	0.504952	0.505243	-0.000552491	8	0.10516	11	0	2.0971	-2.79142e-07
2	1	0	1	0	0	1033.3	0.457817	0.458139	0.00144275	9	0.105146	11	0	1.5529	6.60977e-07
2	1	0	1	0	0	1046.08	0.521729	0.522068	0.00346666	9	0.105172	11	0	14.3354	1.80983e-06
2	1	0	1	0	0	1058.86	0.585641	0.585992	0.0310291	9	0.105323	11	0	27.1178	1.81828e-05
2	1	0	1	0	0	1071.65	0.649553	0.649794	0.258969	9	0.106772	11	0	39.9002	0.000168276
2	1	0	1	0	0	1084.19	0.687701	0.688018	0.642376	9	0.113757	11	0	52.4463	0.000441966
2	1	0	1	0	0	1096.98	0.623789	0.624106	0.113367	9	0.117842	11	0	65.2287	7.07528e-05
2	1	0	1	0	0	1109.76	0.559877	0.560191	0.00960396	9	0.118422	11	0	78.0111	5.38006e-06
2	0	0	1	0	0	1122.54	0.495965	0.496273	-0.00114709	9	0.118448	11	0	3.4952	-5.69271e-07
2	1	0	1	0	1	1135.09	0.466805	0.467116	0.00130837	10	0.118439	11	0	3.2955	6.11161e-07
2	1	0	1	0	1	1147.87	0.530717	0.531034	0.00459509	10	0.118471	11	0	16.0779	2.44015e-06
2	1	0	1	0	1	1160.65	0.594629	0.594954	0.0439134	10	0.118684	11	0	28.8603	2.61264e-05
2	1	0	1	0	1	1173.44	0.658541	0.658856	0.332554	10	0.120615	11	0	41.6427	0.000219105
2	1	0	0	0	1	1185.98	0.678713	0.679021	0.525635	10	0.12816	11	0	54.1888	0.000356917
2	1	0	0	0	1	1198.76	0.614801	0.615142	0.0858502	10	0.131408	11	0	66.9712	5.28101e-05
2	1	0	0	0	1	1211.55	0.550889	0.551243	0.00610919	10	0.131832	11	0	79.7536	3.36765e-06
2	0	0	1	0	1	1224.33	0.486977	0.487277	-0.00110949	10	0.131844	11	0	4.5937	-5.40627e-07
2	1	0	0	0	0	1236.88	0.475792	0.476069	0.00171026	11	0.13184	11	0	5.148	8.14202e-07
2	1	0	0	0	0	1249.66	0.539704	0.540004	0.00553771	11	0.13188	11	0	17.9304	2.99039e-06
2	1	0	1	0	0	1262.44	0.603617	0.603944	0.0622465	11	0.132183	11	0	30.7129	3.75934e-05
2	1	0	1	0	0	1275.23	0.667529	0.667891	0.420235	11	0.134723	11	0	43.4953	0.000280671
2	1	0	1	0	0	1287.77	0.669726	0.67002	0.4254	11	0.142486	11	0	56.0413	0.000285027
2	1	0	1	0	0	1300.55	0.605814	0.606118	0.0649071	11	0.145051	11	0	68.8237	3.93414e-05
2	1	0	1	0	0	1313.34	0.541902	0.54223	0.00338526	11	0.145357	11	0	81.6061	1.83559e-06
2	0	0	1	0	0	1326.12	0.477989	0.478302	-0.000934173	11	0.14536	11	0	5.9918	-4.46816e-07
2	1	0	1	0	1	1338.67	0.48478	0.485109	0.00188392	12	0.145364	11	0	6.9455	9.13905e-07
2	1	0	1	0	1	1351.45	0.548692	0.548984	0.0081742	12	0.145414	11	0	19.7279	4.4875e-06
2	1	0	1	0	1	1364.23	0.612604	0.612931	0.0861465	12	0.145844	11	0	32.5104	5.28019e-05
2	1	0	1	0	1	1377.01	0.676516	0.676848	0.524208	12	0.149133	11	0	45.2928	0.000354809
2	1	0	1	0	1	1389.56	0.660738	0.661063	0.341422	12	0.156782	11	0	57.8389	0.000225701
2	1	0	1	0	1	1402.34	0.596826	0.597142	0.0480546	12	0.158792	11	0	70.6213	2.86954e-05
2	1	0	1	0	1	1415.13	0.532914	0.53323	0.0023374	12	0.159007	11	0	83.4037	1.24637e-06
2	0	0	1	0	1	1427.91	0.469002	0.469301	-0.00143242	12	0.159004	11	0	8.2886	-6.72236e-07
2	1	0	1	0	0	1440.46	0.493768	0.494121	0.00239663	13	0.159015	11	0	8.6881	1.18423e-06
2	1	0	1	0	0	1453.24	0.55768	0.558005	0.0112185	13	0.159079	11	0	21.4705	6.25998e-06
2	1	0	1	0	0	1466.02	0.621592	0.621896	0.118084	13	0.159683	11	0	34.2529	7.34362e-05
2	1	0	1	0	0	1478.8	0.685504	0.685819	0.640715	13	0.163872	11	0	47.0353	0.000439414
2	1	0	0	0	0	1491.35	0.65175	0.652043	0.272339	13	0.171071	11	0	59.5814	0.000177577
2	1	0	0	0	0	1504.13	0.587838	0.588146	0.0352422	13	0.172635	11	0	72.3638	2.07276e-05
2	0	0	0	0	0	1516.91	0.523926	0.524183	0.000966793	13	0.172784	11	0	85.1462	5.06776e-07
2	0	0	1	0	0	1529.7	0.460014	0.460364	-0.00101572	13	0.172777	11	0	9.2873	-4.67599e-07
2	1	0	0	0	1	1542.25	0.502755	0.503045	0.00288139	14	0.172796	11	0	10.5406	1.44947e-06
2	1	0	0	0	1	1555.03	0.566667	0.567109	0.0162092	14	0.172882	11	0	23.323	9.19239e-06
2	1	0	0	0	1	1567.81	0.63058	0.63089	0.159665	14	0.173724	11	0	36.1054	0.000100731
2	1	0	1	0	1	1580.59	0.694492	0.694826	0.776004	14	0.178985	11	0	48.8879	0.000539188
2	1	0	1	0	1	1593.14	0.642763	0.643061	0.215558	14	0.185405	11	0	61.4339	0.000138617
2	1	0	1	0	1	1605.92	0.578851	0.579158	0.0254669	14	0.186611	11	0	74.2163	1.47494e-05
2	1	0	1	0	1	1618.7	0.514939	0.515217	0.000633234	14	0.186711	11	0	86.9987	3.26253e-07
2	1	0	1	0	1	1631.49	0.451026	0.451341	-0.00116701	14	0.186702	11	0	10.4856	-5.26721e-07
2	1	0	1	0	0	1644.03	0.511743	0.512055	0.00342077	15	0.186731	11	0	12.2831	1.75162e-06
2	1	0	1	0	0	1656.82	0.575655	0.575986	0.0232938	15	0.186849	11	0	25.0655	1.34169e-05
2	1	0	1	0	0	1669.6	0.639567	0.639889	0.210845	15	0.188004	11	0	37.8479	0.000134918
2	1	0	1	0	0	1682.15	0.697687	0.698011	0.824375	15	0.194264	11	0	50.394	0.000575423
2	1	0	1	0	0	1694.93	0.633775	0.634112	0.169604	15	0.19979	11	0	63.1764	0.000107548
2	1	0	1	0	0	1707.71	0.569863	0.570236	0.0177487	15	0.200712	11	0	75.9589	1.01209e-05
2	1	0	1	0	0	1720.49	0.505951	0.5063	-0.000139387	15	0.200777	11	0	0.000000000000000E+000	-7.05715e-08
2	0	0	1	0	0	1731.68	0.450003	0.450141	-0.00308535	15	0.200769	11	0	9.987	-1.38884e-06