File: ACS_Catal_2026/Figures_Na_K/main_figures/data/EC/20240401_2-128_CV_cycles_alpha_gamma/gamma/20240328_2-128_002_gamma_K-1_02_PEIS_C02.mpt
EC-Lab ASCII FILE
Nb header lines : 63

Potentio Electrochemical Impedance Spectroscopy

Run on channel : 2 (SN 66414)
User :
CE vs. WE compliance from -10 V to 10 V
Electrode connection : standard
Potential control : Ewe
Ewe ctrl range : min = -1.00 V, max = 1.00 V
Safety Limits :
	Do not start on E overload
Acquisition started on : 04/01/2024 18:52:31.695
Loaded Setting File :  C:\Users\NakamuraT\Documents\EC-Lab\Data\Yatsuzuka\20240401_2-128_CV_cycles_alpha_gamma\20240328_2-128_001_alpha_K-1.mps
Saved on :
	File : 20240328_2-128_002_gamma_K-1_02_PEIS_C02.mpr
	Directory : C:\Users\NakamuraT\Documents\EC-Lab\Data\Yatsuzuka\20240401_2-128_CV_cycles_alpha_gamma\
	Host : 192.109.209.100
Device : SP-150e (SN .003411)
Address : 192.109.209.236
EC-Lab for windows v11.50 (software)
Internet server v11.50 (firmware)
Command interpretor v11.50 (firmware)
Electrode material :
Initial state :
Electrolyte :
Comments :
Electrode surface area : 0.001 cm2
Characteristic mass : 0.001 g
Equivalent Weight : 0.000 g/eq.
Density : 0.000 g/cm3
Volume (V) : 0.001 cm3
Cycle Definition : Charge/Discharge alternance
Mode                Single sine
E (V)               0.4500
vs.                 Ref
tE (h:m:s)          0:00:0.0000
record              0
dI                  0.000
unit dI             mA
dt (s)              0.000
fi                  500.000
unit fi             kHz
ff                  1.000
unit ff             Hz
Nd                  6
Points              per decade
spacing             Logarithmic
Va (mV)             10.0
pw                  0.10
Na                  2
corr                0
E range min (V)     -1.000
E range max (V)     1.000
I Range             Auto
Bandwidth           5
nc cycles           0
goto Ns'            0
nr cycles           0
inc. cycle          0

freq/Hz	Re(Z)/Ohm	-Im(Z)/Ohm	|Z|/Ohm	Phase(Z)/deg	time/s	<Ewe>/V	<I>/mA	Cs/uF	Cp/uF	cycle number	I Range	|Ewe|/V	|I|/A	Ns	(Q-Qo)/mA.h	Re(Y)/Ohm-1	Im(Y)/Ohm-1	|Y|/Ohm-1	Phase(Y)/deg	Re(C)/nF	Im(C)/nF	|C|/nF	Phase(C)/deg	Re(M)	Im(M)	|M|	Phase(M)/deg	Re(Permittivity)	Im(Permittivity)	|Permittivity|	Phase(Permittivity)/deg	Re(Resistivity)/Ohm.cm	Im(Resistivity)/Ohm.cm	|Resistivity|/Ohm.cm	Phase(Resistivity)/deg	Re(Conductivity)/mS/cm	Im(Conductivity)/mS/cm	|Conductivity|/mS/cm	Phase(Conductivity)/deg	Tan(Delta)	Loss Angle(Delta)/deg	dq/mA.h
500019	64.0772	18.6424	66.734	-16.2216	201.051	0.450367	0.000518831	0.0170739	0.00133242	1	11	0.0107544	0.000161153	0	6.54193e-07	0.0143883	0.00418607	0.0149849	16.2216	1.33242	4.57977	4.76965	-73.7784	0.0000000E+000	0.0000000E+000	0.0000000E+000	73.7784	0.0000000E+000	0.0000000E+000	0.0000000E+000	-73.7784	0.0000000E+000	0.0000000E+000	0.0000000E+000	-16.2216	0.0000000E+000	0.0000000E+000	0.0000000E+000	16.2216	3.43718	73.7784	6.54193e-07
231063	48.2145	0.504938	48.2171	-0.600022	201.895	0.450273	0.000520698	1.36412	0.000149598	1	11	0.0106614	0.000221112	0	3.7951e-07	0.0207384	0.000217188	0.0207395	0.600022	0.149598	14.2845	14.2853	-89.4	0.0000000E+000	0.0000000E+000	0.0000000E+000	89.4	0.0000000E+000	0.0000000E+000	0.0000000E+000	-89.4	0.0000000E+000	0.0000000E+000	0.0000000E+000	-0.600022	0.0000000E+000	0.0000000E+000	0.0000000E+000	0.600022	95.486	89.4	8.43135e-08
106786	44.1702	0.116905	44.1703	-0.151644	202.74	0.450284	0.000260887	12.7489	8.9305e-05	1	11	0.0105755	0.000239427	0	1.96688e-08	0.0226396	5.99199e-05	0.0226396	0.151644	0.0893038	33.7421	33.7423	-89.8484	0.0000000E+000	0.0000000E+000	0.0000000E+000	89.8484	0.0000000E+000	0.0000000E+000	0.0000000E+000	-89.8484	0.0000000E+000	0.0000000E+000	0.0000000E+000	-0.151644	0.0000000E+000	0.0000000E+000	0.0000000E+000	0.151644	377.83	89.8484	-2.22056e-07
49352.4	43.3904	0.0677259	43.3905	-0.08943	203.584	0.450291	-0.000174246	47.6165	0.000116005	1	11	0.0104802	0.000241533	0	-2.55767e-07	0.0230465	3.59721e-05	0.0230465	0.08943	0.116008	74.322	74.3221	-89.9106	0.0000000E+000	0.0000000E+000	0.0000000E+000	89.9106	0.0000000E+000	0.0000000E+000	0.0000000E+000	-89.9106	0.0000000E+000	0.0000000E+000	0.0000000E+000	-0.08943	0.0000000E+000	0.0000000E+000	0.0000000E+000	0.08943	640.677	89.9106	-1.7581e-08
22806.6	43.187	0.0981061	43.1871	-0.130156	204.428	0.45029	0.000109999	71.1319	0.000367069	1	11	0.0103745	0.000240222	0	-2.68697e-07	0.023155	5.26002e-05	0.023155	0.130156	0.367073	161.586	161.587	-89.8698	0.0000000E+000	0.0000000E+000	0.0000000E+000	89.8698	0.0000000E+000	0.0000000E+000	0.0000000E+000	-89.8698	0.0000000E+000	0.0000000E+000	0.0000000E+000	-0.130156	0.0000000E+000	0.0000000E+000	0.0000000E+000	0.130156	440.207	89.8698	1.25453e-07
10540.4	43.1307	0.11834	43.1309	-0.157205	205.273	0.450293	0.000109812	127.594	0.000960549	1	11	0.0101929	0.000236324	0	1.71491e-07	0.0231851	6.36144e-05	0.0231852	0.157205	0.960539	350.085	350.086	-89.8428	0.0000000E+000	0.0000000E+000	0.0000000E+000	89.8428	0.0000000E+000	0.0000000E+000	0.0000000E+000	-89.8428	0.0000000E+000	0.0000000E+000	0.0000000E+000	-0.157205	0.0000000E+000	0.0000000E+000	0.0000000E+000	0.157205	364.464	89.8428	-2.4677e-10
4871.56	43.112	0.195017	43.1124	-0.259175	206.264	0.450298	0.000356008	167.525	0.00342782	1	11	0.0104839	0.000243176	0	3.13594e-07	0.0231949	0.000104922	0.0231952	0.259175	3.42787	757.784	757.791	-89.7408	0.0000000E+000	0.0000000E+000	0.0000000E+000	89.7408	0.0000000E+000	0.0000000E+000	0.0000000E+000	-89.7408	0.0000000E+000	0.0000000E+000	0.0000000E+000	-0.259175	0.0000000E+000	0.0000000E+000	0.0000000E+000	0.259175	221.068	89.7408	4.09802e-08
2250.72	43.1462	0.357366	43.1477	-0.474551	207.195	0.450298	0.000212207	197.873	0.0135736	1	11	0.0108163	0.000250681	0	5.18893e-07	0.0231754	0.000191954	0.0231762	0.474551	13.5736	1638.8	1638.86	-89.5255	0.0000000E+000	0.0000000E+000	0.0000000E+000	89.5255	0.0000000E+000	0.0000000E+000	0.0000000E+000	-89.5255	0.0000000E+000	0.0000000E+000	0.0000000E+000	-0.474551	0.0000000E+000	0.0000000E+000	0.0000000E+000	0.474551	120.734	89.5255	-3.54271e-08
1040.33	43.2347	0.701389	43.2404	-0.929418	208.126	0.450293	5.23667e-05	218.117	0.0573889	1	11	0.0108957	0.000251979	0	4.32336e-07	0.0231235	0.000375128	0.0231265	0.929418	57.389	3537.54	3538	-89.0706	0.0000000E+000	0.0000000E+000	0.0000000E+000	89.0706	0.0000000E+000	0.0000000E+000	0.0000000E+000	-89.0706	0.0000000E+000	0.0000000E+000	0.0000000E+000	-0.929418	0.0000000E+000	0.0000000E+000	0.0000000E+000	0.929418	61.6415	89.0706	-2.14821e-08
480.769	43.31	1.41302	43.333	-1.86866	209.056	0.450299	-5.39453e-05	234.28	0.249112	1	11	0.0109078	0.000251719	0	3.78073e-07	0.0230648	0.000752509	0.0230771	1.86866	249.112	7635.43	7639.5	-88.1313	0.0000000E+000	0.0000000E+000	0.0000000E+000	88.1313	0.0000000E+000	0.0000000E+000	0.0000000E+000	-88.1313	0.0000000E+000	0.0000000E+000	0.0000000E+000	-1.86866	0.0000000E+000	0.0000000E+000	0.0000000E+000	1.86866	30.6506	88.1313	2.63726e-09
222.061	43.4783	2.81154	43.5692	-3.6999	209.98	0.450296	9.09744e-05	254.92	1.06153	1	11	0.0109126	0.000250465	0	4.98641e-07	0.0229042	0.00148111	0.022952	3.6999	1061.54	16415.8	16450.1	-86.3001	0.0000000E+000	0.0000000E+000	0.0000000E+000	86.3001	0.0000000E+000	0.0000000E+000	0.0000000E+000	-86.3001	0.0000000E+000	0.0000000E+000	0.0000000E+000	-3.6999	0.0000000E+000	0.0000000E+000	0.0000000E+000	3.6999	15.4642	86.3001	2.39457e-07
102.667	43.7518	5.77913	44.1318	-7.52458	210.917	0.450308	0.000235521	268.241	4.59987	1	11	0.0109178	0.000247391	0	2.78466e-07	0.0224642	0.00296728	0.0226594	7.52458	4599.87	34824.1	35126.6	-82.4754	0.0000000E+000	0.0000000E+000	0.0000000E+000	82.4754	0.0000000E+000	0.0000000E+000	0.0000000E+000	-82.4754	0.0000000E+000	0.0000000E+000	0.0000000E+000	-7.52458	0.0000000E+000	0.0000000E+000	0.0000000E+000	7.52458	7.57066	82.4754	-1.15704e-07
47.4443	44.194	12.0527	45.8081	-15.2549	211.828	0.450289	-5.37587e-05	278.324	19.268	1	11	0.0109175	0.000238332	0	1.22081e-07	0.021061	0.00574382	0.0218302	15.2549	19268	70650.5	73230.8	-74.7451	0.0000000E+000	0.0000000E+000	0.0000000E+000	74.7451	0.0000000E+000	0.0000000E+000	0.0000000E+000	-74.7451	0.0000000E+000	0.0000000E+000	0.0000000E+000	-15.2549	0.0000000E+000	0.0000000E+000	0.0000000E+000	15.2549	3.66673	74.7451	-1.60743e-07
21.9144	45.0821	25.1412	51.6186	-29.1474	212.695	0.450285	-0.000301447	288.871	68.5273	1	11	0.010908	0.000211319	0	-3.99258e-07	0.0169197	0.0094357	0.0193729	29.1474	68527.3	122880	140697	-60.8526	0.0000000E+000	0.0000000E+000	0.0000000E+000	60.8526	0.0000000E+000	0.0000000E+000	0.0000000E+000	-60.8526	0.0000000E+000	0.0000000E+000	0.0000000E+000	-29.1474	0.0000000E+000	0.0000000E+000	0.0000000E+000	29.1474	1.79316	60.8526	-4.61087e-07
10.1329	47.6986	52.6055	71.0105	-47.8006	213.624	0.450288	0.000116337	298.575	163.859	1	11	0.0109105	0.000153646	0	7.07525e-07	0.00945934	0.0104324	0.0140824	47.8006	163859	148575	221188	-42.1994	0.0000000E+000	0.0000000E+000	0.0000000E+000	42.1994	0.0000000E+000	0.0000000E+000	0.0000000E+000	-42.1994	0.0000000E+000	0.0000000E+000	0.0000000E+000	-47.8006	0.0000000E+000	0.0000000E+000	0.0000000E+000	47.8006	0.906724	42.1994	1.0423e-06
4.68375	51.2165	109.977	121.318	-65.0285	214.74	0.450306	0.000856093	308.975	253.908	1	12	0.0109148	8.9968e-05	0	2.96646e-07	0.00347983	0.00747223	0.00824279	65.0285	253908	118245	280092	-24.9715	0.0000000E+000	0.0000000E+000	0.0000000E+000	24.9715	0.0000000E+000	0.0000000E+000	0.0000000E+000	-24.9715	0.0000000E+000	0.0000000E+000	0.0000000E+000	-65.0285	0.0000000E+000	0.0000000E+000	0.0000000E+000	65.0285	0.465701	24.9715	5.22073e-07
2.16533	59.8875	230.226	237.888	-75.4191	216.453	0.450311	0.000778919	319.258	299.025	1	12	0.0109132	4.58753e-05	0	3.44429e-07	0.00105826	0.00406828	0.00420366	75.4191	299025	77783.8	308976	-14.5809	0.0000000E+000	0.0000000E+000	0.0000000E+000	14.5809	0.0000000E+000	0.0000000E+000	0.0000000E+000	-14.5809	0.0000000E+000	0.0000000E+000	0.0000000E+000	-75.4191	0.0000000E+000	0.0000000E+000	0.0000000E+000	75.4191	0.260125	14.5809	7.95515e-07
1.00006	80.8024	483.497	490.203	-80.5124	220.793	0.450311	0.000854227	329.153	320.21	1	13	0.0109156	2.22676e-05	0	2.13376e-06	0.000336258	0.00201207	0.00203997	80.5124	320210	53513.7	324651	-9.48763	0.0000000E+000	0.0000000E+000	0.0000000E+000	9.48763	0.0000000E+000	0.0000000E+000	0.0000000E+000	-9.48763	0.0000000E+000	0.0000000E+000	0.0000000E+000	-80.5124	0.0000000E+000	0.0000000E+000	0.0000000E+000	80.5124	0.167121	9.48763	3.95729e-07